TimeStamp,Delta_TP9,Delta_AF7,Delta_AF8,Delta_TP10,Theta_TP9,Theta_AF7,Theta_AF8,Theta_TP10,Alpha_TP9,Alpha_AF7,Alpha_AF8,Alpha_TP10,Beta_TP9,Beta_AF7,Beta_AF8,Beta_TP10,Gamma_TP9,Gamma_AF7,Gamma_AF8,Gamma_TP10,RAW_TP9,RAW_AF7,RAW_AF8,RAW_TP10,AUX_RIGHT,AUX_LEFT,Accelerometer_X,Accelerometer_Y,Accelerometer_Z,Gyro_X,Gyro_Y,Gyro_Z,HeadBandOn,HSI_TP9,HSI_AF7,HSI_AF8,HSI_TP10,Battery,Elements,,,ToB
19:09:44,,,,,,,,,,,,,,,,,,,,,,,,,,,,,,,,,,,,,,,/muse/event/connected MuseS-49EC,,,19:10:11
19:09:44,0,0.475179253,0.690991974,0,0,0.011136928,0.621481403,0,0,0.086914359,0.217935,0,0,0.87696914,-0.187270599,0,0,0.517057284,-0.171435832,0,129.3406593,805.8608059,812.7106227,130.952381,837.2893773,726.8864469,-0.07019,-0.260681,0.940674,4.538422,-7.252502,-1.375732,1,4,1,1,4,100,,,,
19:09:44,0,0.475179253,0.690991974,0,0,0.011136928,0.621481403,0,0,0.086914359,0.217935,0,0,0.87696914,-0.187270599,0,0,0.517057284,-0.171435832,0,1438.058608,800.2197802,807.4725275,1421.135531,835.6776557,733.3333333,-0.07019,-0.260681,0.940674,4.538422,-7.252502,-1.375732,1,4,1,1,4,100,,,,
19:09:44,0,0.475179253,0.690991974,0,0,0.011136928,0.621481403,0,0,0.086914359,0.217935,0,0,0.87696914,-0.187270599,0,0,0.517057284,-0.171435832,0,272.7838828,790.5494505,807.8754579,259.8901099,795.7875458,728.4981685,-0.07019,-0.260681,0.940674,4.538422,-7.252502,-1.375732,1,4,1,1,4,100,,,,
19:09:44,0,0.475179253,0.690991974,0,0,0.011136928,0.621481403,0,0,0.086914359,0.217935,0,0,0.87696914,-0.187270599,0,0,0.517057284,-0.171435832,0,0,790.1465201,811.0989011,0,837.2893773,727.2893773,-0.07019,-0.260681,0.940674,4.538422,-7.252502,-1.375732,1,4,1,1,4,100,,,,
19:09:44,0,0.475179253,0.690991974,0,0,0.011136928,0.621481403,0,0,0.086914359,0.217935,0,0,0.87696914,-0.187270599,0,0,0.517057284,-0.171435832,0,1013.772894,801.025641,809.4871795,1014.175824,878.7912088,811.0989011,-0.07019,-0.260681,0.940674,4.538422,-7.252502,-1.375732,1,4,1,1,4,100,,,,
19:09:44,0,0.475179253,0.690991974,0,0,0.011136928,0.621481403,0,0,0.086914359,0.217935,0,0,0.87696914,-0.187270599,0,0,0.517057284,-0.171435832,0,111.6117216,804.2490842,805.8608059,108.7912088,806.6666667,1014.981685,-0.07019,-0.260681,0.940674,4.538422,-7.252502,-1.375732,1,4,1,1,4,100,,,,
19:09:44,0,0.475179253,0.690991974,0,0,0.011136928,0.621481403,0,0,0.086914359,0.217935,0,0,0.87696914,-0.187270599,0,0,0.517057284,-0.171435832,0,1485.201465,793.3699634,801.4285714,1486.410256,766.7765568,1054.871795,-0.07019,-0.260681,0.940674,4.538422,-7.252502,-1.375732,1,4,1,1,4,100,,,,
19:09:44,0,0.475179253,0.690991974,0,0,0.011136928,0.621481403,0,0,0.086914359,0.217935,0,0,0.87696914,-0.187270599,0,0,0.517057284,-0.171435832,0,389.2307692,780.8791209,801.4285714,389.2307692,790.1465201,912.6373626,-0.07019,-0.260681,0.940674,4.538422,-7.252502,-1.375732,1,4,1,1,4,100,,,,
19:09:44,0,0.475179253,0.690991974,0,0,0.011136928,0.621481403,0,0,0.086914359,0.217935,0,0,0.87696914,-0.187270599,0,0,0.517057284,-0.171435832,0,0,795.3846154,800.2197802,0,780.0732601,640.2564103,-0.07019,-0.260681,0.940674,4.538422,-7.252502,-1.375732,1,4,1,1,4,100,,,,
19:09:44,0,0.475179253,0.690991974,0,0,0.011136928,0.621481403,0,0,0.086914359,0.217935,0,0,0.87696914,-0.187270599,0,0,0.517057284,-0.171435832,0,633.4065934,833.6630037,802.6373626,618.0952381,785.7142857,650.3296703,-0.07019,-0.260681,0.940674,4.538422,-7.252502,-1.375732,1,4,1,1,4,100,,,,
19:09:44,0,0.475179253,0.690991974,0,0,0.011136928,0.621481403,0,0,0.086914359,0.217935,0,0,0.87696914,-0.187270599,0,0,0.517057284,-0.171435832,0,24.98168498,816.7399267,809.8901099,31.42857143,790.5494505,800.6227106,-0.07019,-0.260681,0.940674,4.538422,-7.252502,-1.375732,1,4,1,1,4,100,,,,
19:09:44,0,0.475179253,0.690991974,0,0,0.011136928,0.621481403,0,0,0.086914359,0.217935,0,0,0.87696914,-0.187270599,0,0,0.517057284,-0.171435832,0,1513.809524,792.5641026,807.8754579,1473.919414,693.8461538,654.7619048,-0.07019,-0.260681,0.940674,4.538422,-7.252502,-1.375732,1,4,1,1,4,100,,,,
19:09:44,0,0.475179253,0.690991974,0,0,0.011136928,0.621481403,0,0,0.086914359,0.217935,0,0,0.87696914,-0.187270599,0,0,0.517057284,-0.171435832,0,366.2637363,786.1172161,803.8461538,314.2857143,687.3992674,636.2271062,-0.024109,-0.246948,0.990906,12.179718,-8.658142,3.611298,1,4,1,1,4,100,,,,
19:09:44,0,0.475179253,0.690991974,0,0,0.011136928,0.621481403,0,0,0.086914359,0.217935,0,0,0.87696914,-0.187270599,0,0,0.517057284,-0.171435832,0,0,782.8937729,805.8608059,0,743.8095238,823.992674,-0.024109,-0.246948,0.990906,12.179718,-8.658142,3.611298,1,4,1,1,4,100,,,,
19:09:44,0,0.475179253,0.690991974,0,0,0.011136928,0.621481403,0,0,0.086914359,0.217935,0,0,0.87696914,-0.187270599,0,0,0.517057284,-0.171435832,0,298.5714286,789.3406593,807.4725275,252.6373626,775.6410256,799.8168498,-0.024109,-0.246948,0.990906,12.179718,-8.658142,3.611298,1,4,1,1,4,100,,,,
19:09:44,,,,,,,,,,,,,,,,,,,,,,,,,,,,,,,,,,,,,,,/muse/elements/blink,,,
19:09:44,0,0.475179253,0.700595389,0,0,0.011136928,0.630387589,0,0,0.086914359,0.210668795,0,0,0.87696914,-0.202825625,0,0,0.517057284,-0.177689893,0,1524.688645,804.6520147,804.2490842,1494.468864,847.3626374,835.6776557,-0.024109,-0.246948,0.990906,12.179718,-8.658142,3.611298,1,4,1,1,4,100,,,,
19:09:44,0,0.475179253,0.700595389,0,0,0.011136928,0.630387589,0,0,0.086914359,0.210668795,0,0,0.87696914,-0.202825625,0,0,0.517057284,-0.177689893,0,1571.428571,823.1868132,802.2344322,1562.161172,822.3809524,780.8791209,-0.024109,-0.246948,0.990906,12.179718,-8.658142,3.611298,1,4,1,1,4,100,,,,
19:09:44,0,0.475179253,0.700595389,0,0,0.011136928,0.630387589,0,0,0.086914359,0.210668795,0,0,0.87696914,-0.202825625,0,0,0.517057284,-0.177689893,0,336.4468864,801.8315018,798.2051282,305.8241758,777.6556777,865.0915751,-0.024109,-0.246948,0.990906,12.179718,-8.658142,3.611298,1,4,1,1,4,100,,,,
19:09:44,0,0.475179253,0.700595389,0,0,0.011136928,0.630387589,0,0,0.086914359,0.210668795,0,0,0.87696914,-0.202825625,0,0,0.517057284,-0.177689893,0,0,790.1465201,794.1758242,0,792.967033,969.8534799,-0.024109,-0.246948,0.990906,12.179718,-8.658142,3.611298,1,4,1,1,4,100,,,,
19:09:44,0,0.475179253,0.700595389,0,0,0.011136928,0.630387589,0,0,0.086914359,0.210668795,0,0,0.87696914,-0.202825625,0,0,0.517057284,-0.177689893,0,209.1208791,797.3992674,796.996337,158.3516484,777.2527473,897.7289377,-0.024109,-0.246948,0.990906,12.179718,-8.658142,3.611298,1,4,1,1,4,100,,,,
19:09:44,0,0.475179253,0.700595389,0,0,0.011136928,0.630387589,0,0,0.086914359,0.210668795,0,0,0.87696914,-0.202825625,0,0,0.517057284,-0.177689893,0,1427.985348,837.6923077,803.4432234,1384.871795,786.1172161,774.8351648,-0.024109,-0.246948,0.990906,12.179718,-8.658142,3.611298,1,4,1,1,4,100,,,,
19:09:44,0,0.475179253,0.700595389,0,0,0.011136928,0.630387589,0,0,0.086914359,0.210668795,0,0,0.87696914,-0.202825625,0,0,0.517057284,-0.177689893,0,1629.047619,840.1098901,804.2490842,1612.527473,838.4981685,743.4065934,-0.024109,-0.246948,0.990906,12.179718,-8.658142,3.611298,1,4,1,1,4,100,,,,
19:09:44,0,0.475179253,0.700595389,0,0,0.011136928,0.630387589,0,0,0.086914359,0.210668795,0,0,0.87696914,-0.202825625,0,0,0.517057284,-0.177689893,0,379.5604396,793.3699634,803.8461538,333.2234432,899.7435897,808.6813187,-0.024109,-0.246948,0.990906,12.179718,-8.658142,3.611298,1,4,1,1,4,100,,,,
19:09:44,0,0.475179253,0.700595389,0,0,0.011136928,0.630387589,0,0,0.086914359,0.210668795,0,0,0.87696914,-0.202825625,0,0,0.517057284,-0.177689893,0,0,793.3699634,796.996337,0,897.7289377,766.3736264,-0.024109,-0.246948,0.990906,12.179718,-8.658142,3.611298,1,4,1,1,4,100,,,,
19:09:44,0,0.475179253,0.700595389,0,0,0.011136928,0.630387589,0,0,0.086914359,0.210668795,0,0,0.87696914,-0.202825625,0,0,0.517057284,-0.177689893,0,170.03663,803.8461538,797.3992674,156.7399267,880.8058608,697.8754579,0.009583,-0.199646,1.026428,14.871368,-7.992706,6.04126,1,4,1,1,4,100,,,,
19:09:44,0,0.475179253,0.700595389,0,0,0.011136928,0.630387589,0,0,0.086914359,0.210668795,0,0,0.87696914,-0.202825625,0,0,0.517057284,-0.177689893,0,1226.117216,801.025641,803.8461538,1230.952381,866.3003663,790.1465201,0.009583,-0.199646,1.026428,14.871368,-7.992706,6.04126,1,4,1,1,4,100,,,,
19:09:44,0,0.475179253,0.700595389,0,0,0.011136928,0.630387589,0,0,0.086914359,0.210668795,0,0,0.87696914,-0.202825625,0,0,0.517057284,-0.177689893,0,149.0842491,796.996337,803.040293,148.2783883,893.6996337,913.040293,0.009583,-0.199646,1.026428,14.871368,-7.992706,6.04126,1,4,1,1,4,100,,,,
19:09:44,0,0.475179253,0.700595389,0,0,0.011136928,0.630387589,0,0,0.086914359,0.210668795,0,0,0.87696914,-0.202825625,0,0,0.517057284,-0.177689893,0,1268.827839,796.1904762,799.4139194,1073.406593,862.2710623,809.8901099,0.009583,-0.199646,1.026428,14.871368,-7.992706,6.04126,1,4,1,1,4,100,,,,
19:09:44,0,0.475179253,0.700595389,0,0,0.011136928,0.630387589,0,0,0.086914359,0.210668795,0,0,0.87696914,-0.202825625,0,0,0.517057284,-0.177689893,0,62.05128205,789.7435897,796.1904762,0,790.952381,638.6446886,0.009583,-0.199646,1.026428,14.871368,-7.992706,6.04126,1,4,1,1,4,100,,,,
19:09:44,0,0.475179253,0.700595389,0,0,0.011136928,0.630387589,0,0,0.086914359,0.210668795,0,0,0.87696914,-0.202825625,0,0,0.517057284,-0.177689893,0,59.23076923,792.1611722,803.040293,90.65934066,827.2161172,894.9084249,0.009583,-0.199646,1.026428,14.871368,-7.992706,6.04126,1,4,1,1,4,100,,,,
19:09:44,0,0.475179253,0.700595389,0,0,0.011136928,0.630387589,0,0,0.086914359,0.210668795,0,0,0.87696914,-0.202825625,0,0,0.517057284,-0.177689893,0,1275.677656,791.7582418,806.2637363,1270.03663,861.8681319,1166.080586,0.009583,-0.199646,1.026428,14.871368,-7.992706,6.04126,1,4,1,1,4,100,,,,
19:09:44,0,0.475179253,0.700595389,0,0,0.011136928,0.630387589,0,0,0.086914359,0.210668795,0,0,0.87696914,-0.202825625,0,0,0.517057284,-0.177689893,0,133.3699634,807.4725275,805.4578755,139.8168498,849.7802198,1018.205128,0.009583,-0.199646,1.026428,14.871368,-7.992706,6.04126,1,4,1,1,4,100,,,,
19:09:44,0,0.475179253,0.700595389,0,0,0.011136928,0.630387589,0,0,0.086914359,0.210668795,0,0,0.87696914,-0.202825625,0,0,0.517057284,-0.177689893,0,1318.791209,831.2454212,803.4432234,1212.014652,805.0549451,735.3479853,0.009583,-0.199646,1.026428,14.871368,-7.992706,6.04126,1,4,1,1,4,100,,,,
19:09:44,0,0.475179253,0.700595389,0,0,0.011136928,0.630387589,0,0,0.086914359,0.210668795,0,0,0.87696914,-0.202825625,0,0,0.517057284,-0.177689893,0,99.12087912,799.010989,799.010989,51.57509158,792.5641026,658.7912088,0.009583,-0.199646,1.026428,14.871368,-7.992706,6.04126,1,4,1,1,4,100,,,,
19:09:44,0,0.475179253,0.700595389,0,0,0.011136928,0.630387589,0,0,0.086914359,0.210668795,0,0,0.87696914,-0.202825625,0,0,0.517057284,-0.177689893,0,30.62271062,782.8937729,800.2197802,42.30769231,824.3956044,803.4432234,0.009583,-0.199646,1.026428,14.871368,-7.992706,6.04126,1,4,1,1,4,100,,,,
19:09:44,0,0.475179253,0.700595389,0,0,0.011136928,0.630387589,0,0,0.086914359,0.210668795,0,0,0.87696914,-0.202825625,0,0,0.517057284,-0.177689893,0,1252.307692,807.8754579,803.8461538,1243.040293,857.8388278,949.7069597,0.009583,-0.199646,1.026428,14.871368,-7.992706,6.04126,1,4,1,1,4,100,,,,
19:09:44,0,0.475179253,0.700595389,0,0,0.011136928,0.630387589,0,0,0.086914359,0.210668795,0,0,0.87696914,-0.202825625,0,0,0.517057284,-0.177689893,0,141.8315018,809.8901099,801.025641,145.0549451,923.5164835,994.4322344,-0.040527,-0.152161,0.998413,16.105042,0.433655,9.405823,1,4,1,1,4,100,,,,
19:09:44,0,0.475179253,0.700595389,0,0,0.011136928,0.630387589,0,0,0.086914359,0.210668795,0,0,0.87696914,-0.202825625,0,0,0.517057284,-0.177689893,0,1283.333333,793.7728938,799.8168498,1207.179487,871.5384615,996.4468864,-0.040527,-0.152161,0.998413,16.105042,0.433655,9.405823,1,4,1,1,4,100,,,,
19:09:44,0,0.475179253,0.700595389,0,0,0.011136928,0.630387589,0,0,0.086914359,0.210668795,0,0,0.87696914,-0.202825625,0,0,0.517057284,-0.177689893,0,120.8791209,792.5641026,797.8021978,83.80952381,788.5347985,781.2820513,-0.040527,-0.152161,0.998413,16.105042,0.433655,9.405823,1,4,1,1,4,100,,,,
19:09:44,0,0.475179253,0.700595389,0,0,0.011136928,0.630387589,0,0,0.086914359,0.210668795,0,0,0.87696914,-0.202825625,0,0,0.517057284,-0.177689893,0,0,815.1282051,799.010989,0,819.5604396,695.4578755,-0.040527,-0.152161,0.998413,16.105042,0.433655,9.405823,1,4,1,1,4,100,,,,
19:09:44,0,0.475179253,0.700595389,0,0,0.011136928,0.630387589,0,0,0.086914359,0.210668795,0,0,0.87696914,-0.202825625,0,0,0.517057284,-0.177689893,0,1085.494505,810.6959707,803.8461538,1101.611722,821.978022,676.5201465,-0.040527,-0.152161,0.998413,16.105042,0.433655,9.405823,1,4,1,1,4,100,,,,
19:09:44,0,0.475179253,0.711425619,0,0,0.011136928,0.637421335,0,0,0.086914359,0.204929111,0,0,0.87696914,-0.218850609,0,0,0.517057284,-0.192464825,0,114.8351648,796.1904762,801.8315018,116.8498168,814.3223443,952.5274725,-0.040527,-0.152161,0.998413,16.105042,0.433655,9.405823,1,4,1,1,4,100,,,,
19:09:44,0,0.475179253,0.711425619,0,0,0.011136928,0.637421335,0,0,0.086914359,0.204929111,0,0,0.87696914,-0.218850609,0,0,0.517057284,-0.192464825,0,1473.919414,798.6080586,798.6080586,1471.098901,824.3956044,1138.681319,-0.040527,-0.152161,0.998413,16.105042,0.433655,9.405823,1,4,1,1,4,100,,,,
19:09:44,0,0.475179253,0.711425619,0,0,0.011136928,0.637421335,0,0,0.086914359,0.204929111,0,0,0.87696914,-0.218850609,0,0,0.517057284,-0.192464825,0,384.3956044,828.021978,803.040293,368.2783883,784.1025641,798.6080586,-0.040527,-0.152161,0.998413,16.105042,0.433655,9.405823,1,4,1,1,4,100,,,,
19:09:44,0,0.475179253,0.711425619,0,0,0.011136928,0.637421335,0,0,0.086914359,0.204929111,0,0,0.87696914,-0.218850609,0,0,0.517057284,-0.192464825,0,0,819.5604396,800.6227106,0,738.1684982,597.1428571,-0.040527,-0.152161,0.998413,16.105042,0.433655,9.405823,1,4,1,1,4,100,,,,
19:09:44,0,0.475179253,0.711425619,0,0,0.011136928,0.637421335,0,0,0.086914359,0.204929111,0,0,0.87696914,-0.218850609,0,0,0.517057284,-0.192464825,0,634.6153846,784.5054945,801.8315018,717.2161172,707.9487179,625.7509158,-0.040527,-0.152161,0.998413,16.105042,0.433655,9.405823,1,4,1,1,4,100,,,,
19:09:44,0,0.475179253,0.711425619,0,0,0.011136928,0.637421335,0,0,0.086914359,0.204929111,0,0,0.87696914,-0.218850609,0,0,0.517057284,-0.192464825,0,78.16849817,791.7582418,803.040293,100.3296703,757.5091575,747.032967,-0.040527,-0.152161,0.998413,16.105042,0.433655,9.405823,1,4,1,1,4,100,,,,
19:09:44,0,0.475179253,0.711425619,0,0,0.011136928,0.637421335,0,0,0.086914359,0.204929111,0,0,0.87696914,-0.218850609,0,0,0.517057284,-0.192464825,0,1018.608059,794.5787546,793.7728938,1033.516484,705.5311355,650.3296703,-0.040527,-0.152161,0.998413,16.105042,0.433655,9.405823,1,4,1,1,4,100,,,,
19:09:44,0,0.475179253,0.711425619,0,0,0.011136928,0.637421335,0,0,0.086914359,0.204929111,0,0,0.87696914,-0.218850609,0,0,0.517057284,-0.192464825,0,22.16117216,797.3992674,794.981685,40.6959707,687.3992674,483.5164835,-0.05365,-0.092407,0.930603,7.342224,1.360779,4.560852,1,4,1,1,4,100,,,,
19:09:44,0,0.475179253,0.711425619,0,0,0.011136928,0.637421335,0,0,0.086914359,0.204929111,0,0,0.87696914,-0.218850609,0,0,0.517057284,-0.192464825,0,0,801.8315018,799.8168498,0,707.9487179,604.7985348,-0.05365,-0.092407,0.930603,7.342224,1.360779,4.560852,1,4,1,1,4,100,,,,
19:09:44,0,0.475179253,0.711425619,0,0,0.011136928,0.637421335,0,0,0.086914359,0.204929111,0,0,0.87696914,-0.218850609,0,0,0.517057284,-0.192464825,0,201.4652015,815.9340659,794.1758242,244.5787546,711.978022,764.7619048,-0.05365,-0.092407,0.930603,7.342224,1.360779,4.560852,1,4,1,1,4,100,,,,
19:09:44,0,0.475179253,0.711425619,0,0,0.011136928,0.637421335,0,0,0.086914359,0.204929111,0,0,0.87696914,-0.218850609,0,0,0.517057284,-0.192464825,0,1537.582418,836.0805861,791.3553114,1563.772894,812.7106227,803.8461538,-0.05365,-0.092407,0.930603,7.342224,1.360779,4.560852,1,4,1,1,4,100,,,,
19:09:44,0,0.475179253,0.711425619,0,0,0.011136928,0.637421335,0,0,0.086914359,0.204929111,0,0,0.87696914,-0.218850609,0,0,0.517057284,-0.192464825,0,1339.74359,822.7838828,795.3846154,1324.835165,802.6373626,646.3003663,-0.05365,-0.092407,0.930603,7.342224,1.360779,4.560852,1,4,1,1,4,100,,,,
19:09:44,0,0.475179253,0.711425619,0,0,0.011136928,0.637421335,0,0,0.086914359,0.204929111,0,0,0.87696914,-0.218850609,0,0,0.517057284,-0.192464825,0,95.09157509,803.4432234,799.8168498,101.5384615,761.1355311,799.010989,-0.05365,-0.092407,0.930603,7.342224,1.360779,4.560852,1,4,1,1,4,100,,,,
19:09:44,0,0.475179253,0.711425619,0,0,0.011136928,0.637421335,0,0,0.086914359,0.204929111,0,0,0.87696914,-0.218850609,0,0,0.517057284,-0.192464825,0,0,817.5457875,797.8021978,0,778.8644689,997.6556777,-0.05365,-0.092407,0.930603,7.342224,1.360779,4.560852,1,4,1,1,4,100,,,,
19:09:44,0,0.475179253,0.711425619,0,0,0.011136928,0.637421335,0,0,0.086914359,0.204929111,0,0,0.87696914,-0.218850609,0,0,0.517057284,-0.192464825,0,142.2344322,851.3919414,793.3699634,168.021978,797.8021978,819.5604396,-0.05365,-0.092407,0.930603,7.342224,1.360779,4.560852,1,4,1,1,4,100,,,,
19:09:44,0,0.475179253,0.711425619,0,0,0.011136928,0.637421335,0,0,0.086914359,0.204929111,0,0,0.87696914,-0.218850609,0,0,0.517057284,-0.192464825,0,1403.406593,829.6336996,792.1611722,1431.611722,830.4395604,731.3186813,-0.05365,-0.092407,0.930603,7.342224,1.360779,4.560852,1,4,1,1,4,100,,,,
19:09:44,0,0.475179253,0.711425619,0,0,0.011136928,0.637421335,0,0,0.086914359,0.204929111,0,0,0.87696914,-0.218850609,0,0,0.517057284,-0.192464825,0,1561.758242,805.0549451,790.952381,1553.699634,821.978022,759.5238095,-0.05365,-0.092407,0.930603,7.342224,1.360779,4.560852,1,4,1,1,4,100,,,,
19:09:44,0,0.475179253,0.711425619,0,0,0.011136928,0.637421335,0,0,0.086914359,0.204929111,0,0,0.87696914,-0.218850609,0,0,0.517057284,-0.192464825,0,267.5457875,797.8021978,795.3846154,269.5604396,765.970696,691.025641,-0.05365,-0.092407,0.930603,7.342224,1.360779,4.560852,1,4,1,1,4,100,,,,
19:09:44,0,0.475179253,0.711425619,0,0,0.011136928,0.637421335,0,0,0.086914359,0.204929111,0,0,0.87696914,-0.218850609,0,0,0.517057284,-0.192464825,0,0,791.7582418,795.3846154,0,726.8864469,593.1135531,-0.05365,-0.092407,0.930603,7.342224,1.360779,4.560852,1,4,1,1,4,100,,,,
19:09:44,0,0.475179253,0.711425619,0,0,0.011136928,0.637421335,0,0,0.086914359,0.204929111,0,0,0.87696914,-0.218850609,0,0,0.517057284,-0.192464825,0,105.1648352,794.5787546,796.1904762,122.0879121,750.6593407,597.9487179,-0.05365,-0.092407,0.930603,7.342224,1.360779,4.560852,1,4,1,1,4,100,,,,
19:09:44,0,0.475179253,0.711425619,0,0,0.011136928,0.637421335,0,0,0.086914359,0.204929111,0,0,0.87696914,-0.218850609,0,0,0.517057284,-0.192464825,0,1323.626374,807.0695971,802.2344322,1345.787546,774.029304,914.6520147,-0.05365,-0.092407,0.930603,7.342224,1.360779,4.560852,1,4,1,1,4,100,,,,
19:09:44,0,0.475179253,0.711425619,0,0,0.011136928,0.637421335,0,0,0.086914359,0.204929111,0,0,0.87696914,-0.218850609,0,0,0.517057284,-0.192464825,0,1614.945055,828.8278388,802.2344322,1611.721612,794.1758242,913.8461538,-0.05365,-0.092407,0.930603,7.342224,1.360779,4.560852,1,4,1,1,4,100,,,,
19:09:44,0,0.475179253,0.711425619,0,0,0.011136928,0.637421335,0,0,0.086914359,0.204929111,0,0,0.87696914,-0.218850609,0,0,0.517057284,-0.192464825,0,317.5091575,810.2930403,804.2490842,318.7179487,796.1904762,683.3699634,-0.05365,-0.092407,0.930603,7.342224,1.360779,4.560852,1,4,1,1,4,100,,,,
19:09:44,0,0.475179253,0.711425619,0,0,0.011136928,0.637421335,0,0,0.086914359,0.204929111,0,0,0.87696914,-0.218850609,0,0,0.517057284,-0.192464825,0,0,790.1465201,801.4285714,0,805.8608059,626.959707,-0.05365,-0.092407,0.930603,7.342224,1.360779,4.560852,1,4,1,1,4,100,,,,
19:09:44,0,0.475179253,0.711425619,0,0,0.011136928,0.637421335,0,0,0.086914359,0.204929111,0,0,0.87696914,-0.218850609,0,0,0.517057284,-0.192464825,0,110.8058608,795.3846154,798.2051282,111.2087912,805.0549451,900.952381,-0.05365,-0.092407,0.930603,7.342224,1.360779,4.560852,1,4,1,1,4,100,,,,
19:09:44,0,0.475179253,0.711425619,0,0,0.011136928,0.637421335,0,0,0.086914359,0.204929111,0,0,0.87696914,-0.218850609,0,0,0.517057284,-0.192464825,0,1301.465201,833.2600733,796.1904762,1307.106227,797.3992674,1185.018315,-0.05365,-0.092407,0.930603,7.342224,1.360779,4.560852,1,4,1,1,4,100,,,,
19:09:44,0,0.475179253,0.725459974,0,0,0.011136928,0.645390589,0,0,0.086914359,0.194402148,0,0,0.87696914,-0.22939624,0,0,0.517057284,-0.217549765,0,20.14652015,842.1245421,791.3553114,11.68498168,846.5567766,988.3882784,-0.05365,-0.092407,0.930603,7.342224,1.360779,4.560852,1,4,1,1,4,100,,,,
19:09:44,0,0.475179253,0.725459974,0,0,0.011136928,0.645390589,0,0,0.086914359,0.194402148,0,0,0.87696914,-0.22939624,0,0,0.517057284,-0.217549765,0,409.3772894,796.5934066,793.3699634,394.8717949,820.3663004,637.4358974,-0.05365,-0.092407,0.930603,7.342224,1.360779,4.560852,1,4,1,1,4,100,,,,
19:09:44,0,0.475179253,0.725459974,0,0,0.011136928,0.645390589,0,0,0.086914359,0.194402148,0,0,0.87696914,-0.22939624,0,0,0.517057284,-0.217549765,0,0,784.5054945,793.3699634,0,818.3516484,647.1062271,-0.05365,-0.092407,0.930603,7.342224,1.360779,4.560852,1,4,1,1,4,100,,,,
19:09:44,0,0.475179253,0.725459974,0,0,0.011136928,0.645390589,0,0,0.086914359,0.194402148,0,0,0.87696914,-0.22939624,0,0,0.517057284,-0.217549765,0,130.5494505,796.1904762,795.3846154,127.7289377,854.2124542,758.3150183,-0.05365,-0.092407,0.930603,7.342224,1.360779,4.560852,1,4,1,1,4,100,,,,
19:09:44,0,0.475179253,0.725459974,0,0,0.011136928,0.645390589,0,0,0.086914359,0.194402148,0,0,0.87696914,-0.22939624,0,0,0.517057284,-0.217549765,0,1261.978022,804.6520147,798.2051282,1268.424908,896.9230769,856.2271062,-0.05365,-0.092407,0.930603,7.342224,1.360779,4.560852,1,4,1,1,4,100,,,,
19:09:44,0,0.475179253,0.725459974,0,0,0.011136928,0.645390589,0,0,0.086914359,0.194402148,0,0,0.87696914,-0.22939624,0,0,0.517057284,-0.217549765,0,118.4615385,797.8021978,796.1904762,103.956044,911.025641,809.4871795,-0.061523,-0.094849,0.923157,0.904694,2.803802,-5.405731,1,4,1,1,4,100,,,,
19:09:44,0,0.475179253,0.725459974,0,0,0.011136928,0.645390589,0,0,0.086914359,0.194402148,0,0,0.87696914,-0.22939624,0,0,0.517057284,-0.217549765,0,660,790.952381,798.2051282,624.9450549,870.3296703,745.018315,-0.061523,-0.094849,0.923157,0.904694,2.803802,-5.405731,1,4,1,1,4,100,,,,
19:09:44,0,0.475179253,0.725459974,0,0,0.011136928,0.645390589,0,0,0.086914359,0.194402148,0,0,0.87696914,-0.22939624,0,0,0.517057284,-0.217549765,0,0,789.3406593,798.6080586,0,864.6886447,778.4615385,-0.061523,-0.094849,0.923157,0.904694,2.803802,-5.405731,1,4,1,1,4,100,,,,
19:09:44,0,0.475179253,0.725459974,0,0,0.011136928,0.645390589,0,0,0.086914359,0.194402148,0,0,0.87696914,-0.22939624,0,0,0.517057284,-0.217549765,0,79.78021978,792.5641026,794.1758242,86.63003663,853.8095238,752.6739927,-0.061523,-0.094849,0.923157,0.904694,2.803802,-5.405731,1,4,1,1,4,100,,,,
19:09:44,0,0.475179253,0.725459974,0,0,0.011136928,0.645390589,0,0,0.086914359,0.194402148,0,0,0.87696914,-0.22939624,0,0,0.517057284,-0.217549765,0,1141.098901,791.7582418,798.2051282,1160.842491,845.3479853,764.3589744,-0.061523,-0.094849,0.923157,0.904694,2.803802,-5.405731,1,4,1,1,4,100,,,,
19:09:44,0,0.475179253,0.725459974,0,0,0.011136928,0.645390589,0,0,0.086914359,0.194402148,0,0,0.87696914,-0.22939624,0,0,0.517057284,-0.217549765,0,170.03663,806.6666667,801.025641,160.7692308,817.1428571,1043.186813,-0.061523,-0.094849,0.923157,0.904694,2.803802,-5.405731,1,4,1,1,4,100,,,,
19:09:44,0,0.475179253,0.725459974,0,0,0.011136928,0.645390589,0,0,0.086914359,0.194402148,0,0,0.87696914,-0.22939624,0,0,0.517057284,-0.217549765,0,1050.43956,812.7106227,798.2051282,990.8058608,817.5457875,1093.553114,-0.061523,-0.094849,0.923157,0.904694,2.803802,-5.405731,1,4,1,1,4,100,,,,
19:09:44,0,0.475179253,0.725459974,0,0,0.011136928,0.645390589,0,0,0.086914359,0.194402148,0,0,0.87696914,-0.22939624,0,0,0.517057284,-0.217549765,0,23.77289377,786.1172161,796.996337,8.864468864,801.025641,838.4981685,-0.061523,-0.094849,0.923157,0.904694,2.803802,-5.405731,1,4,1,1,4,100,,,,
19:09:44,0,0.475179253,0.725459974,0,0,0.011136928,0.645390589,0,0,0.086914359,0.194402148,0,0,0.87696914,-0.22939624,0,0,0.517057284,-0.217549765,0,0,782.0879121,794.981685,0,813.9194139,709.96337,-0.061523,-0.094849,0.923157,0.904694,2.803802,-5.405731,1,4,1,1,4,100,,,,
19:09:44,0,0.475179253,0.725459974,0,0,0.011136928,0.645390589,0,0,0.086914359,0.194402148,0,0,0.87696914,-0.22939624,0,0,0.517057284,-0.217549765,0,990.8058608,806.2637363,794.981685,1010.952381,833.6630037,740.5860806,-0.061523,-0.094849,0.923157,0.904694,2.803802,-5.405731,1,4,1,1,4,100,,,,
19:09:44,0,0.475179253,0.725459974,0,0,0.011136928,0.645390589,0,0,0.086914359,0.194402148,0,0,0.87696914,-0.22939624,0,0,0.517057284,-0.217549765,0,172.8571429,807.4725275,801.4285714,169.6336996,873.5531136,879.1941392,-0.061523,-0.094849,0.923157,0.904694,2.803802,-5.405731,1,4,1,1,4,100,,,,
19:09:44,0,0.475179253,0.725459974,0,0,0.011136928,0.645390589,0,0,0.086914359,0.194402148,0,0,0.87696914,-0.22939624,0,0,0.517057284,-0.217549765,0,1151.575092,785.7142857,801.8315018,1070.989011,818.7545788,730.1098901,-0.061523,-0.094849,0.923157,0.904694,2.803802,-5.405731,1,4,1,1,4,100,,,,
19:09:44,0,0.475179253,0.725459974,0,0,0.011136928,0.645390589,0,0,0.086914359,0.194402148,0,0,0.87696914,-0.22939624,0,0,0.517057284,-0.217549765,0,90.65934066,780.8791209,803.4432234,62.05128205,735.7509158,651.5384615,-0.029785,-0.168457,0.909973,-1.443024,1.271057,-16.060181,1,4,1,1,4,100,,,,
19:09:44,0,0.475179253,0.725459974,0,0,0.011136928,0.645390589,0,0,0.086914359,0.194402148,0,0,0.87696914,-0.22939624,0,0,0.517057284,-0.217549765,0,0,809.4871795,806.2637363,0,714.7985348,803.4432234,-0.029785,-0.168457,0.909973,-1.443024,1.271057,-16.060181,1,4,1,1,4,100,,,,
19:09:44,0,0.475179253,0.725459974,0,0,0.011136928,0.645390589,0,0,0.086914359,0.194402148,0,0,0.87696914,-0.22939624,0,0,0.517057284,-0.217549765,0,718.021978,819.5604396,803.4432234,745.4212454,743.4065934,741.7948718,-0.029785,-0.168457,0.909973,-1.443024,1.271057,-16.060181,1,4,1,1,4,100,,,,
19:09:44,0,0.475179253,0.725459974,0,0,0.011136928,0.645390589,0,0,0.086914359,0.194402148,0,0,0.87696914,-0.22939624,0,0,0.517057284,-0.217549765,0,95.09157509,789.3406593,800.6227106,107.1794872,838.4981685,792.967033,-0.029785,-0.168457,0.909973,-1.443024,1.271057,-16.060181,1,4,1,1,4,100,,,,
19:09:44,0,0.475179253,0.725459974,0,0,0.011136928,0.645390589,0,0,0.086914359,0.194402148,0,0,0.87696914,-0.22939624,0,0,0.517057284,-0.217549765,0,1369.56044,780.0732601,802.6373626,1322.820513,828.4249084,753.4798535,-0.029785,-0.168457,0.909973,-1.443024,1.271057,-16.060181,1,4,1,1,4,100,,,,
19:09:44,0,0.475179253,0.725459974,0,0,0.011136928,0.645390589,0,0,0.086914359,0.194402148,0,0,0.87696914,-0.22939624,0,0,0.517057284,-0.217549765,0,221.2087912,793.3699634,803.8461538,196.2271062,749.047619,795.3846154,-0.029785,-0.168457,0.909973,-1.443024,1.271057,-16.060181,1,4,1,1,4,100,,,,
19:09:44,0,0.475179253,0.725459974,0,0,0.011136928,0.645390589,0,0,0.086914359,0.194402148,0,0,0.87696914,-0.22939624,0,0,0.517057284,-0.217549765,0,0,788.9377289,807.4725275,0,751.0622711,926.3369963,-0.029785,-0.168457,0.909973,-1.443024,1.271057,-16.060181,1,4,1,1,4,100,,,,
19:09:44,0,0.475179253,0.725459974,0,0,0.011136928,0.645390589,0,0,0.086914359,0.194402148,0,0,0.87696914,-0.22939624,0,0,0.517057284,-0.217549765,0,430.7326007,780.0732601,806.6666667,464.1758242,764.3589744,894.9084249,-0.029785,-0.168457,0.909973,-1.443024,1.271057,-16.060181,1,4,1,1,4,100,,,,
19:09:44,0,0.475179253,0.725459974,0,0,0.011136928,0.645390589,0,0,0.086914359,0.194402148,0,0,0.87696914,-0.22939624,0,0,0.517057284,-0.217549765,0,1607.289377,789.7435897,806.2637363,1631.062271,694.6520147,611.6483516,-0.029785,-0.168457,0.909973,-1.443024,1.271057,-16.060181,1,4,1,1,4,100,,,,
19:09:44,0,0.475179253,0.730731026,0,0,0.011136928,0.647489024,0,0,0.086914359,0.192780339,0,0,0.87696914,-0.230111705,0,0,0.517057284,-0.251306652,0,1523.076923,814.7252747,805.4578755,1481.978022,745.018315,610.8424908,-0.029785,-0.168457,0.909973,-1.443024,1.271057,-16.060181,1,4,1,1,4,100,,,,
19:09:44,0,0.475179253,0.730731026,0,0,0.011136928,0.647489024,0,0,0.086914359,0.192780339,0,0,0.87696914,-0.230111705,0,0,0.517057284,-0.251306652,0,321.5384615,806.2637363,801.8315018,286.4835165,840.5128205,831.2454212,-0.029785,-0.168457,0.909973,-1.443024,1.271057,-16.060181,1,4,1,1,4,100,,,,
19:09:44,0,0.475179253,0.730731026,0,0,0.011136928,0.647489024,0,0,0.086914359,0.192780339,0,0,0.87696914,-0.230111705,0,0,0.517057284,-0.251306652,0,0,784.5054945,797.3992674,0,815.9340659,769.1941392,-0.029785,-0.168457,0.909973,-1.443024,1.271057,-16.060181,1,4,1,1,4,100,,,,
19:09:44,0,0.475179253,0.730731026,0,0,0.011136928,0.647489024,0,0,0.086914359,0.192780339,0,0,0.87696914,-0.230111705,0,0,0.517057284,-0.251306652,0,235.3113553,795.7875458,801.8315018,242.967033,742.1978022,593.9194139,-0.022766,-0.28363,0.94696,0.53833,-4.815063,-16.17981,1,4,1,1,4,100,,,,
19:09:44,0,0.475179253,0.730731026,0,0,0.011136928,0.647489024,0,0,0.086914359,0.192780339,0,0,0.87696914,-0.230111705,0,0,0.517057284,-0.251306652,0,1471.904762,815.9340659,808.2783883,1483.992674,790.952381,743.003663,-0.022766,-0.28363,0.94696,0.53833,-4.815063,-16.17981,1,4,1,1,4,100,,,,
19:09:44,0,0.475179253,0.730731026,0,0,0.011136928,0.647489024,0,0,0.086914359,0.192780339,0,0,0.87696914,-0.230111705,0,0,0.517057284,-0.251306652,0,1585.531136,794.5787546,806.2637363,1569.413919,811.0989011,792.1611722,-0.022766,-0.28363,0.94696,0.53833,-4.815063,-16.17981,1,4,1,1,4,100,,,,
19:09:44,0,0.475179253,0.730731026,0,0,0.011136928,0.647489024,0,0,0.086914359,0.192780339,0,0,0.87696914,-0.230111705,0,0,0.517057284,-0.251306652,0,327.1794872,776.043956,799.010989,310.2564103,780.4761905,657.985348,-0.022766,-0.28363,0.94696,0.53833,-4.815063,-16.17981,1,4,1,1,4,100,,,,
19:09:44,0,0.475179253,0.730731026,0,0,0.011136928,0.647489024,0,0,0.086914359,0.192780339,0,0,0.87696914,-0.230111705,0,0,0.517057284,-0.251306652,0,0,776.4468864,794.981685,0,815.9340659,630.1831502,-0.022766,-0.28363,0.94696,0.53833,-4.815063,-16.17981,1,4,1,1,4,100,,,,
19:09:44,0,0.475179253,0.730731026,0,0,0.011136928,0.647489024,0,0,0.086914359,0.192780339,0,0,0.87696914,-0.230111705,0,0,0.517057284,-0.251306652,0,139.8168498,784.5054945,799.4139194,147.0695971,821.5750916,890.8791209,-0.022766,-0.28363,0.94696,0.53833,-4.815063,-16.17981,1,4,1,1,4,100,,,,
19:09:44,0,0.475179253,0.730731026,0,0,0.011136928,0.647489024,0,0,0.086914359,0.192780339,0,0,0.87696914,-0.230111705,0,0,0.517057284,-0.251306652,0,1366.739927,796.1904762,800.6227106,1373.992674,834.4688645,1109.67033,-0.022766,-0.28363,0.94696,0.53833,-4.815063,-16.17981,1,4,1,1,4,100,,,,
19:09:44,0,0.475179253,0.730731026,0,0,0.011136928,0.647489024,0,0,0.086914359,0.192780339,0,0,0.87696914,-0.230111705,0,0,0.517057284,-0.251306652,0,1607.692308,784.9084249,799.8168498,1609.304029,837.6923077,919.0842491,-0.022766,-0.28363,0.94696,0.53833,-4.815063,-16.17981,1,4,1,1,4,100,,,,
19:09:44,0,0.475179253,0.730731026,0,0,0.011136928,0.647489024,0,0,0.086914359,0.192780339,0,0,0.87696914,-0.230111705,0,0,0.517057284,-0.251306652,0,318.7179487,794.5787546,796.1904762,323.5531136,832.8571429,626.959707,-0.022766,-0.28363,0.94696,0.53833,-4.815063,-16.17981,1,4,1,1,4,100,,,,
19:09:44,0,0.475179253,0.730731026,0,0,0.011136928,0.647489024,0,0,0.086914359,0.192780339,0,0,0.87696914,-0.230111705,0,0,0.517057284,-0.251306652,0,0,811.5018315,790.5494505,0,828.021978,637.032967,-0.022766,-0.28363,0.94696,0.53833,-4.815063,-16.17981,1,4,1,1,4,100,,,,
19:09:44,0,0.475179253,0.730731026,0,0,0.011136928,0.647489024,0,0,0.086914359,0.192780339,0,0,0.87696914,-0.230111705,0,0,0.517057284,-0.251306652,0,116.4468864,788.1318681,793.7728938,112.8205128,815.5311355,721.2454212,-0.022766,-0.28363,0.94696,0.53833,-4.815063,-16.17981,1,4,1,1,4,100,,,,
19:09:44,0,0.475179253,0.730731026,0,0,0.011136928,0.647489024,0,0,0.086914359,0.192780339,0,0,0.87696914,-0.230111705,0,0,0.517057284,-0.251306652,0,1288.168498,785.7142857,805.4578755,1297.838828,836.4835165,799.8168498,-0.022766,-0.28363,0.94696,0.53833,-4.815063,-16.17981,1,4,1,1,4,100,,,,
19:09:44,0,0.475179253,0.730731026,0,0,0.011136928,0.647489024,0,0,0.086914359,0.192780339,0,0,0.87696914,-0.230111705,0,0,0.517057284,-0.251306652,0,55.6043956,779.2673993,807.8754579,31.02564103,775.2380952,762.7472527,0.025757,-0.307983,0.997681,9.144135,-6.332855,-10.437622,1,4,1,1,4,100,,,,
19:09:44,0,0.475179253,0.730731026,0,0,0.011136928,0.647489024,0,0,0.086914359,0.192780339,0,0,0.87696914,-0.230111705,0,0,0.517057284,-0.251306652,0,478.6813187,771.2087912,803.040293,433.5531136,777.6556777,886.4468864,0.025757,-0.307983,0.997681,9.144135,-6.332855,-10.437622,1,4,1,1,4,100,,,,
19:09:44,0,0.475179253,0.730731026,0,0,0.011136928,0.647489024,0,0,0.086914359,0.192780339,0,0,0.87696914,-0.230111705,0,0,0.517057284,-0.251306652,0,0,772.014652,800.2197802,0,846.959707,985.5677656,0.025757,-0.307983,0.997681,9.144135,-6.332855,-10.437622,1,4,1,1,4,100,,,,
19:09:44,0,0.475179253,0.730731026,0,0,0.011136928,0.647489024,0,0,0.086914359,0.192780339,0,0,0.87696914,-0.230111705,0,0,0.517057284,-0.251306652,0,132.1611722,772.8205128,797.8021978,127.7289377,798.6080586,743.8095238,0.025757,-0.307983,0.997681,9.144135,-6.332855,-10.437622,1,4,1,1,4,100,,,,
19:09:44,0,0.475179253,0.730731026,0,0,0.011136928,0.647489024,0,0,0.086914359,0.192780339,0,0,0.87696914,-0.230111705,0,0,0.517057284,-0.251306652,0,1258.754579,804.2490842,804.6520147,1268.021978,763.956044,645.8974359,0.025757,-0.307983,0.997681,9.144135,-6.332855,-10.437622,1,4,1,1,4,100,,,,
19:09:44,0,0.475179253,0.730731026,0,0,0.011136928,0.647489024,0,0,0.086914359,0.192780339,0,0,0.87696914,-0.230111705,0,0,0.517057284,-0.251306652,0,127.3260073,802.6373626,809.0842491,107.985348,767.5824176,841.7216117,0.025757,-0.307983,0.997681,9.144135,-6.332855,-10.437622,1,4,1,1,4,100,,,,
19:09:44,0,0.475179253,0.730731026,0,0,0.011136928,0.647489024,0,0,0.086914359,0.192780339,0,0,0.87696914,-0.230111705,0,0,0.517057284,-0.251306652,0,711.978022,763.1501832,807.4725275,643.0769231,752.6739927,931.1721612,0.025757,-0.307983,0.997681,9.144135,-6.332855,-10.437622,1,4,1,1,4,100,,,,
19:09:44,0,0.475179253,0.730731026,0,0,0.011136928,0.647489024,0,0,0.086914359,0.192780339,0,0,0.87696914,-0.230111705,0,0,0.517057284,-0.251306652,0,0,755.8974359,800.6227106,0,753.4798535,836.8864469,0.025757,-0.307983,0.997681,9.144135,-6.332855,-10.437622,1,4,1,1,4,100,,,,
19:09:44,0,0.475179253,0.730731026,0,0,0.011136928,0.647489024,0,0,0.086914359,0.192780339,0,0,0.87696914,-0.230111705,0,0,0.517057284,-0.251306652,0,88.24175824,781.2820513,799.010989,90.25641026,767.1794872,661.2087912,0.025757,-0.307983,0.997681,9.144135,-6.332855,-10.437622,1,4,1,1,4,100,,,,
19:09:44,0,0.475179253,0.730731026,0,0,0.011136928,0.647489024,0,0,0.086914359,0.192780339,0,0,0.87696914,-0.230111705,0,0,0.517057284,-0.251306652,0,1161.648352,786.9230769,800.6227106,1168.498168,817.5457875,728.4981685,0.025757,-0.307983,0.997681,9.144135,-6.332855,-10.437622,1,4,1,1,4,100,,,,
19:09:44,0,0.475179253,0.730731026,0,0,0.011136928,0.647489024,0,0,0.086914359,0.192780339,0,0,0.87696914,-0.230111705,0,0,0.517057284,-0.251306652,0,166.8131868,773.2234432,801.025641,159.96337,859.8534799,861.0622711,0.025757,-0.307983,0.997681,9.144135,-6.332855,-10.437622,1,4,1,1,4,100,,,,
19:09:44,0,0.475179253,0.714742103,0,0,0.011136928,0.632507305,0,0,0.086914359,0.19106883,0,0,0.87696914,-0.221070822,0,0,0.517057284,-0.287460133,0,1116.117216,766.7765568,800.2197802,1014.578755,820.7692308,764.7619048,0.025757,-0.307983,0.997681,9.144135,-6.332855,-10.437622,1,4,1,1,4,100,,,,
19:09:44,0,0.475179253,0.714742103,0,0,0.011136928,0.632507305,0,0,0.086914359,0.19106883,0,0,0.87696914,-0.221070822,0,0,0.517057284,-0.287460133,0,37.47252747,761.1355311,800.6227106,6.84981685,765.970696,582.2344322,0.025757,-0.307983,0.997681,9.144135,-6.332855,-10.437622,1,4,1,1,4,100,,,,
19:09:44,0,0.475179253,0.714742103,0,0,0.011136928,0.632507305,0,0,0.086914359,0.19106883,0,0,0.87696914,-0.221070822,0,0,0.517057284,-0.287460133,0,0,763.5531136,802.6373626,0,775.2380952,634.6153846,0.025757,-0.307983,0.997681,9.144135,-6.332855,-10.437622,1,4,1,1,4,100,,,,
19:09:44,0,0.475179253,0.714742103,0,0,0.011136928,0.632507305,0,0,0.086914359,0.19106883,0,0,0.87696914,-0.221070822,0,0,0.517057284,-0.287460133,0,1061.721612,772.8205128,807.8754579,1053.663004,799.010989,774.4322344,0.025757,-0.307983,0.997681,9.144135,-6.332855,-10.437622,1,4,1,1,4,100,,,,
19:09:44,0,0.475179253,0.714742103,0,0,0.011136928,0.632507305,0,0,0.086914359,0.19106883,0,0,0.87696914,-0.221070822,0,0,0.517057284,-0.287460133,0,139.010989,779.2673993,806.6666667,147.8754579,822.7838828,851.7948718,0.025757,-0.307983,0.997681,9.144135,-6.332855,-10.437622,1,4,1,1,4,100,,,,
19:09:44,0,0.475179253,0.714742103,0,0,0.011136928,0.632507305,0,0,0.086914359,0.19106883,0,0,0.87696914,-0.221070822,0,0,0.517057284,-0.287460133,0,1401.391941,775.2380952,799.4139194,1357.875458,758.7179487,865.8974359,0.025757,-0.307983,0.997681,9.144135,-6.332855,-10.437622,1,4,1,1,4,100,,,,
19:09:44,0,0.475179253,0.714742103,0,0,0.011136928,0.632507305,0,0,0.086914359,0.19106883,0,0,0.87696914,-0.221070822,0,0,0.517057284,-0.287460133,0,253.040293,764.7619048,799.010989,213.956044,630.989011,789.7435897,0.025757,-0.307983,0.997681,9.144135,-6.332855,-10.437622,1,4,1,1,4,100,,,,
19:09:44,0,0.475179253,0.714742103,0,0,0.011136928,0.632507305,0,0,0.086914359,0.19106883,0,0,0.87696914,-0.221070822,0,0,0.517057284,-0.287460133,0,0,760.7326007,802.2344322,0,699.4871795,887.2527473,0.025757,-0.307983,0.997681,9.144135,-6.332855,-10.437622,1,4,1,1,4,100,,,,
19:09:44,0,0.475179253,0.714742103,0,0,0.011136928,0.632507305,0,0,0.086914359,0.19106883,0,0,0.87696914,-0.221070822,0,0,0.517057284,-0.287460133,0,900.5494505,785.7142857,806.6666667,913.040293,740.1831502,859.4505495,0.025757,-0.307983,0.997681,9.144135,-6.332855,-10.437622,1,4,1,1,4,100,,,,
19:09:44,0,0.475179253,0.714742103,0,0,0.011136928,0.632507305,0,0,0.086914359,0.19106883,0,0,0.87696914,-0.221070822,0,0,0.517057284,-0.287460133,0,95.09157509,834.8717949,804.2490842,99.12087912,730.5128205,676.5201465,0.025757,-0.307983,0.997681,9.144135,-6.332855,-10.437622,1,4,1,1,4,100,,,,
19:09:44,0,0.475179253,0.714742103,0,0,0.011136928,0.632507305,0,0,0.086914359,0.19106883,0,0,0.87696914,-0.221070822,0,0,0.517057284,-0.287460133,0,1490.842491,799.4139194,796.5934066,1482.380952,779.6703297,684.1758242,0.025757,-0.307983,0.997681,9.144135,-6.332855,-10.437622,1,4,1,1,4,100,,,,
19:09:44,0,0.475179253,0.714742103,0,0,0.011136928,0.632507305,0,0,0.086914359,0.19106883,0,0,0.87696914,-0.221070822,0,0,0.517057284,-0.287460133,0,371.5018315,755.0915751,798.2051282,358.6080586,805.8608059,712.3809524,0.025757,-0.307983,0.997681,9.144135,-6.332855,-10.437622,1,4,1,1,4,100,,,,
19:09:44,0,0.475179253,0.714742103,0,0,0.011136928,0.632507305,0,0,0.086914359,0.19106883,0,0,0.87696914,-0.221070822,0,0,0.517057284,-0.287460133,0,0,760.3296703,801.4285714,0,805.8608059,668.0586081,0.025757,-0.307983,0.997681,9.144135,-6.332855,-10.437622,1,4,1,1,4,100,,,,
19:09:44,0,0.475179253,0.714742103,0,0,0.011136928,0.632507305,0,0,0.086914359,0.19106883,0,0,0.87696914,-0.221070822,0,0,0.517057284,-0.287460133,0,638.6446886,769.1941392,800.2197802,663.6263736,858.2417582,721.2454212,0.044128,-0.238037,0.988464,18.101349,0.934601,-5.271149,1,4,1,1,4,100,,,,
19:09:44,0,0.475179253,0.714742103,0,0,0.011136928,0.632507305,0,0,0.086914359,0.19106883,0,0,0.87696914,-0.221070822,0,0,0.517057284,-0.287460133,0,17.32600733,778.4615385,800.6227106,24.17582418,912.6373626,1051.648352,0.044128,-0.238037,0.988464,18.101349,0.934601,-5.271149,1,4,1,1,4,100,,,,
19:09:44,0,0.475179253,0.714742103,0,0,0.011136928,0.632507305,0,0,0.086914359,0.19106883,0,0,0.87696914,-0.221070822,0,0,0.517057284,-0.287460133,0,1539.59707,773.6263736,798.2051282,1535.567766,796.996337,904.981685,0.044128,-0.238037,0.988464,18.101349,0.934601,-5.271149,1,4,1,1,4,100,,,,
19:09:44,0,0.475179253,0.714742103,0,0,0.011136928,0.632507305,0,0,0.086914359,0.19106883,0,0,0.87696914,-0.221070822,0,0,0.517057284,-0.287460133,0,405.7509158,782.4908425,794.5787546,403.3333333,785.3113553,702.3076923,0.044128,-0.238037,0.988464,18.101349,0.934601,-5.271149,1,4,1,1,4,100,,,,
19:09:44,0,0.475179253,0.714742103,0,0,0.011136928,0.632507305,0,0,0.086914359,0.19106883,0,0,0.87696914,-0.221070822,0,0,0.517057284,-0.287460133,0,0,765.5677656,791.7582418,0,803.040293,672.8937729,0.044128,-0.238037,0.988464,18.101349,0.934601,-5.271149,1,4,1,1,4,100,,,,
19:09:44,0,0.475179253,0.714742103,0,0,0.011136928,0.632507305,0,0,0.086914359,0.19106883,0,0,0.87696914,-0.221070822,0,0,0.517057284,-0.287460133,0,354.981685,745.4212454,782.8937729,373.1135531,804.6520147,875.970696,0.044128,-0.238037,0.988464,18.101349,0.934601,-5.271149,1,4,1,1,4,100,,,,
19:09:44,0,0.475179253,0.714742103,0,0,0.011136928,0.632507305,0,0,0.086914359,0.19106883,0,0,0.87696914,-0.221070822,0,0,0.517057284,-0.287460133,0,1517.435897,752.2710623,778.8644689,1532.344322,889.6703297,1237.802198,0.044128,-0.238037,0.988464,18.101349,0.934601,-5.271149,1,4,1,1,4,100,,,,
19:09:44,0,0.475179253,0.714742103,0,0,0.011136928,0.632507305,0,0,0.086914359,0.19106883,0,0,0.87696914,-0.221070822,0,0,0.517057284,-0.287460133,0,12.89377289,779.6703297,776.043956,1641.941392,913.8461538,1185.018315,0.044128,-0.238037,0.988464,18.101349,0.934601,-5.271149,1,4,1,1,4,100,,,,
19:09:44,0,0.475179253,0.714742103,0,0,0.011136928,0.632507305,0,0,0.086914359,0.19106883,0,0,0.87696914,-0.221070822,0,0,0.517057284,-0.287460133,0,523.4065934,771.2087912,776.8498168,491.1721612,882.014652,780.8791209,0.044128,-0.238037,0.988464,18.101349,0.934601,-5.271149,1,4,1,1,4,100,,,,
19:09:44,0,0.475179253,0.714742103,0,0,0.011136928,0.632507305,0,0,0.086914359,0.19106883,0,0,0.87696914,-0.221070822,0,0,0.517057284,-0.287460133,0,0,736.5567766,777.6556777,0,875.970696,683.3699634,0.044128,-0.238037,0.988464,18.101349,0.934601,-5.271149,1,4,1,1,4,100,,,,
19:09:44,0,0.475179253,0.714742103,0,0,0.011136928,0.632507305,0,0,0.086914359,0.19106883,0,0,0.87696914,-0.221070822,0,0,0.517057284,-0.287460133,0,239.7435897,744.2124542,775.2380952,247.8021978,815.9340659,718.021978,0.044128,-0.238037,0.988464,18.101349,0.934601,-5.271149,1,4,1,1,4,100,,,,
19:09:44,0,0.475179253,0.714742103,0,0,0.011136928,0.632507305,0,0,0.086914359,0.19106883,0,0,0.87696914,-0.221070822,0,0,0.517057284,-0.287460133,0,1387.289377,751.8681319,778.8644689,1397.765568,806.2637363,795.3846154,0.044128,-0.238037,0.988464,18.101349,0.934601,-5.271149,1,4,1,1,4,100,,,,
19:09:44,0,0.475179253,0.714742103,0,0,0.011136928,0.632507305,0,0,0.086914359,0.19106883,0,0,0.87696914,-0.221070822,0,0,0.517057284,-0.287460133,0,101.9413919,742.1978022,780.8791209,89.45054945,819.96337,885.2380952,0.009216,-0.193848,0.953186,22.602386,6.370239,-1.80191,1,4,1,1,4,100,,,,
19:09:44,0,0.475179253,0.678847669,0,0,0.011136928,0.593149448,0,0,0.086914359,0.187995075,0,0,0.87696914,-0.205910747,0,0,0.517057284,-0.319064906,0,725.6776557,740.989011,775.6410256,709.1575092,752.6739927,698.2783883,0.009216,-0.193848,0.953186,22.602386,6.370239,-1.80191,1,4,1,1,4,100,,,,
19:09:44,0,0.475179253,0.678847669,0,0,0.011136928,0.593149448,0,0,0.086914359,0.187995075,0,0,0.87696914,-0.205910747,0,0,0.517057284,-0.319064906,0,0,747.8388278,774.029304,0,755.4945055,636.2271062,0.009216,-0.193848,0.953186,22.602386,6.370239,-1.80191,1,4,1,1,4,100,,,,
19:09:44,0,0.475179253,0.678847669,0,0,0.011136928,0.593149448,0,0,0.086914359,0.187995075,0,0,0.87696914,-0.205910747,0,0,0.517057284,-0.319064906,0,139.8168498,749.4505495,778.4615385,145.4578755,810.6959707,715.6043956,0.009216,-0.193848,0.953186,22.602386,6.370239,-1.80191,1,4,1,1,4,100,,,,
19:09:44,0,0.475179253,0.678847669,0,0,0.011136928,0.593149448,0,0,0.086914359,0.187995075,0,0,0.87696914,-0.205910747,0,0,0.517057284,-0.319064906,0,1249.487179,755.4945055,783.6996337,1266.410256,772.8205128,735.7509158,0.009216,-0.193848,0.953186,22.602386,6.370239,-1.80191,1,4,1,1,4,100,,,,
19:09:44,0,0.475179253,0.678847669,0,0,0.011136928,0.593149448,0,0,0.086914359,0.187995075,0,0,0.87696914,-0.205910747,0,0,0.517057284,-0.319064906,0,151.5018315,756.7032967,786.1172161,143.8461538,775.6410256,939.2307692,0.009216,-0.193848,0.953186,22.602386,6.370239,-1.80191,1,4,1,1,4,100,,,,
19:09:44,0,0.475179253,0.678847669,0,0,0.011136928,0.593149448,0,0,0.086914359,0.187995075,0,0,0.87696914,-0.205910747,0,0,0.517057284,-0.319064906,0,1089.92674,762.7472527,782.8937729,1037.142857,836.4835165,1104.029304,0.009216,-0.193848,0.953186,22.602386,6.370239,-1.80191,1,4,1,1,4,100,,,,
19:09:44,0,0.475179253,0.678847669,0,0,0.011136928,0.593149448,0,0,0.086914359,0.187995075,0,0,0.87696914,-0.205910747,0,0,0.517057284,-0.319064906,0,0,781.2820513,780.8791209,0,797.3992674,810.6959707,0.009216,-0.193848,0.953186,22.602386,6.370239,-1.80191,1,4,1,1,4,100,,,,
19:09:44,0,0.475179253,0.678847669,0,0,0.011136928,0.593149448,0,0,0.086914359,0.187995075,0,0,0.87696914,-0.205910747,0,0,0.517057284,-0.319064906,0,87.83882784,765.1648352,782.4908425,91.46520147,780.0732601,564.9084249,0.009216,-0.193848,0.953186,22.602386,6.370239,-1.80191,1,4,1,1,4,100,,,,
19:09:44,0,0.475179253,0.678847669,0,0,0.011136928,0.593149448,0,0,0.086914359,0.187995075,0,0,0.87696914,-0.205910747,0,0,0.517057284,-0.319064906,0,1263.186813,763.1501832,783.6996337,1264.395604,819.1575092,740.989011,0.009216,-0.193848,0.953186,22.602386,6.370239,-1.80191,1,4,1,1,4,100,,,,
19:09:44,0,0.475179253,0.678847669,0,0,0.011136928,0.593149448,0,0,0.086914359,0.187995075,0,0,0.87696914,-0.205910747,0,0,0.517057284,-0.319064906,0,145.0549451,780.0732601,783.6996337,143.040293,835.2747253,1029.487179,0.009216,-0.193848,0.953186,22.602386,6.370239,-1.80191,1,4,1,1,4,100,,,,
19:09:44,0,0.475179253,0.678847669,0,0,0.011136928,0.593149448,0,0,0.086914359,0.187995075,0,0,0.87696914,-0.205910747,0,0,0.517057284,-0.319064906,0,1228.937729,774.4322344,785.3113553,1164.871795,865.0915751,904.1758242,0.009216,-0.193848,0.953186,22.602386,6.370239,-1.80191,1,4,1,1,4,100,,,,
19:09:44,0,0.475179253,0.678847669,0,0,0.011136928,0.593149448,0,0,0.086914359,0.187995075,0,0,0.87696914,-0.205910747,0,0,0.517057284,-0.319064906,0,48.75457875,763.1501832,788.9377289,29.81684982,875.970696,656.3736264,-0.010742,-0.135193,0.9505,19.858398,7.080536,0.328979,1,4,1,1,4,100,,,,
19:09:44,0,0.475179253,0.678847669,0,0,0.011136928,0.593149448,0,0,0.086914359,0.187995075,0,0,0.87696914,-0.205910747,0,0,0.517057284,-0.319064906,0,41.9047619,767.5824176,792.1611722,49.96336996,838.0952381,865.0915751,-0.010742,-0.135193,0.9505,19.858398,7.080536,0.328979,1,4,1,1,4,100,,,,
19:09:44,0,0.475179253,0.678847669,0,0,0.011136928,0.593149448,0,0,0.086914359,0.187995075,0,0,0.87696914,-0.205910747,0,0,0.517057284,-0.319064906,0,1235.384615,802.6373626,791.3553114,1234.981685,838.9010989,927.5457875,-0.010742,-0.135193,0.9505,19.858398,7.080536,0.328979,1,4,1,1,4,100,,,,
19:09:44,0,0.475179253,0.678847669,0,0,0.011136928,0.593149448,0,0,0.086914359,0.187995075,0,0,0.87696914,-0.205910747,0,0,0.517057284,-0.319064906,0,138.2051282,796.996337,786.9230769,141.4285714,865.8974359,838.0952381,-0.010742,-0.135193,0.9505,19.858398,7.080536,0.328979,1,4,1,1,4,100,,,,
19:09:44,0,0.475179253,0.678847669,0,0,0.011136928,0.593149448,0,0,0.086914359,0.187995075,0,0,0.87696914,-0.205910747,0,0,0.517057284,-0.319064906,0,1328.864469,766.7765568,788.9377289,1269.230769,842.9304029,735.7509158,-0.010742,-0.135193,0.9505,19.858398,7.080536,0.328979,1,4,1,1,4,100,,,,
19:09:44,0,0.475179253,0.678847669,0,0,0.011136928,0.593149448,0,0,0.086914359,0.187995075,0,0,0.87696914,-0.205910747,0,0,0.517057284,-0.319064906,0,153.5164835,769.5970696,791.3553114,126.5201465,889.6703297,969.8534799,-0.010742,-0.135193,0.9505,19.858398,7.080536,0.328979,1,4,1,1,4,100,,,,
19:09:44,0,0.475179253,0.678847669,0,0,0.011136928,0.593149448,0,0,0.086914359,0.187995075,0,0,0.87696914,-0.205910747,0,0,0.517057284,-0.319064906,0,0,804.2490842,790.5494505,0,916.6666667,1149.157509,-0.010742,-0.135193,0.9505,19.858398,7.080536,0.328979,1,4,1,1,4,100,,,,
19:09:44,0,0.475179253,0.678847669,0,0,0.011136928,0.593149448,0,0,0.086914359,0.187995075,0,0,0.87696914,-0.205910747,0,0,0.517057284,-0.319064906,0,1084.688645,803.4432234,795.7875458,1078.644689,877.1794872,896.1172161,-0.010742,-0.135193,0.9505,19.858398,7.080536,0.328979,1,4,1,1,4,100,,,,
19:09:44,0,0.475179253,0.678847669,0,0,0.011136928,0.593149448,0,0,0.086914359,0.187995075,0,0,0.87696914,-0.205910747,0,0,0.517057284,-0.319064906,0,129.3406593,776.043956,795.3846154,136.5934066,907.8021978,783.2967033,-0.010742,-0.135193,0.9505,19.858398,7.080536,0.328979,1,4,1,1,4,100,,,,
19:09:44,0,0.475179253,0.678847669,0,0,0.011136928,0.593149448,0,0,0.086914359,0.187995075,0,0,0.87696914,-0.205910747,0,0,0.517057284,-0.319064906,0,1423.553114,771.2087912,788.9377289,1390.10989,845.7509158,759.9267399,-0.010742,-0.135193,0.9505,19.858398,7.080536,0.328979,1,4,1,1,4,100,,,,
19:09:44,0,0.475179253,0.678847669,0,0,0.011136928,0.593149448,0,0,0.086914359,0.187995075,0,0,0.87696914,-0.205910747,0,0,0.517057284,-0.319064906,0,282.8571429,764.3589744,787.3260073,257.4725275,781.2820513,698.2783883,-0.010742,-0.135193,0.9505,19.858398,7.080536,0.328979,1,4,1,1,4,100,,,,
19:09:44,0,0.475179253,0.678847669,0,0,0.011136928,0.593149448,0,0,0.086914359,0.187995075,0,0,0.87696914,-0.205910747,0,0,0.517057284,-0.319064906,0,0,768.3882784,787.3260073,0,742.6007326,611.6483516,-0.010742,-0.135193,0.9505,19.858398,7.080536,0.328979,1,4,1,1,4,100,,,,
19:09:44,0,0.475179253,0.678847669,0,0,0.011136928,0.593149448,0,0,0.086914359,0.187995075,0,0,0.87696914,-0.205910747,0,0,0.517057284,-0.319064906,0,870.3296703,778.8644689,789.3406593,835.2747253,757.9120879,670.8791209,-0.018921,-0.14624,0.97052,17.129364,6.273041,3.244934,1,4,1,1,4,100,,,,
19:09:44,0,0.475179253,0.678847669,0,0,0.011136928,0.593149448,0,0,0.086914359,0.187995075,0,0,0.87696914,-0.205910747,0,0,0.517057284,-0.319064906,0,89.85347985,788.1318681,792.5641026,88.24175824,831.2454212,962.6007326,-0.018921,-0.14624,0.97052,17.129364,6.273041,3.244934,1,4,1,1,4,100,,,,
19:09:44,0,0.475179253,0.678847669,0,0,0.011136928,0.593149448,0,0,0.086914359,0.187995075,0,0,0.87696914,-0.205910747,0,0,0.517057284,-0.319064906,0,1489.6337,784.5054945,788.9377289,1465.457875,806.2637363,889.2673993,-0.018921,-0.14624,0.97052,17.129364,6.273041,3.244934,1,4,1,1,4,100,,,,
19:09:44,0,0.475179253,0.638041115,0,0,0.011136928,0.532577044,0,0,0.086914359,0.186670637,0,0,0.87696914,-0.191402922,0,0,0.517057284,-0.3427324,0,368.2783883,772.8205128,785.7142857,334.029304,749.8534799,640.2564103,-0.018921,-0.14624,0.97052,17.129364,6.273041,3.244934,1,4,1,1,4,100,,,,
19:09:44,0,0.475179253,0.638041115,0,0,0.011136928,0.532577044,0,0,0.086914359,0.186670637,0,0,0.87696914,-0.191402922,0,0,0.517057284,-0.3427324,0,0,776.4468864,782.0879121,0,718.021978,552.4175824,-0.018921,-0.14624,0.97052,17.129364,6.273041,3.244934,1,4,1,1,4,100,,,,
19:09:44,0,0.475179253,0.638041115,0,0,0.011136928,0.532577044,0,0,0.086914359,0.186670637,0,0,0.87696914,-0.191402922,0,0,0.517057284,-0.3427324,0,597.1428571,792.5641026,793.3699634,566.5201465,806.2637363,923.5164835,-0.018921,-0.14624,0.97052,17.129364,6.273041,3.244934,1,4,1,1,4,100,,,,
19:09:44,0,0.475179253,0.638041115,0,0,0.011136928,0.532577044,0,0,0.086914359,0.186670637,0,0,0.87696914,-0.191402922,0,0,0.517057284,-0.3427324,0,12.89377289,798.6080586,805.0549451,2.820512821,858.2417582,1191.465201,-0.018921,-0.14624,0.97052,17.129364,6.273041,3.244934,1,4,1,1,4,100,,,,
19:09:44,0,0.475179253,0.638041115,0,0,0.011136928,0.532577044,0,0,0.086914359,0.186670637,0,0,0.87696914,-0.191402922,0,0,0.517057284,-0.3427324,0,1519.85348,783.2967033,796.5934066,1521.062271,831.6483516,916.2637363,-0.018921,-0.14624,0.97052,17.129364,6.273041,3.244934,1,4,1,1,4,100,,,,
19:09:44,0,0.475179253,0.638041115,0,0,0.011136928,0.532577044,0,0,0.086914359,0.186670637,0,0,0.87696914,-0.191402922,0,0,0.517057284,-0.3427324,0,363.8461538,763.5531136,797.3992674,354.981685,795.7875458,585.8608059,-0.018921,-0.14624,0.97052,17.129364,6.273041,3.244934,1,4,1,1,4,100,,,,
19:09:44,0,0.475179253,0.638041115,0,0,0.011136928,0.532577044,0,0,0.086914359,0.186670637,0,0,0.87696914,-0.191402922,0,0,0.517057284,-0.3427324,0,0,772.8205128,806.6666667,0,765.1648352,595.1282051,-0.018921,-0.14624,0.97052,17.129364,6.273041,3.244934,1,4,1,1,4,100,,,,
19:09:44,0,0.475179253,0.638041115,0,0,0.011136928,0.532577044,0,0,0.086914359,0.186670637,0,0,0.87696914,-0.191402922,0,0,0.517057284,-0.3427324,0,317.5091575,788.9377289,804.2490842,294.1391941,827.6190476,769.5970696,-0.018921,-0.14624,0.97052,17.129364,6.273041,3.244934,1,4,1,1,4,100,,,,
19:09:44,0,0.475179253,0.638041115,0,0,0.011136928,0.532577044,0,0,0.086914359,0.186670637,0,0,0.87696914,-0.191402922,0,0,0.517057284,-0.3427324,0,1520.25641,784.1025641,802.2344322,1506.556777,900.5494505,870.7326007,-0.018921,-0.14624,0.97052,17.129364,6.273041,3.244934,1,4,1,1,4,100,,,,
19:09:44,0,0.475179253,0.638041115,0,0,0.011136928,0.532577044,0,0,0.086914359,0.186670637,0,0,0.87696914,-0.191402922,0,0,0.517057284,-0.3427324,0,1611.721612,782.4908425,804.2490842,1600.842491,849.7802198,846.1538462,-0.018921,-0.14624,0.97052,17.129364,6.273041,3.244934,1,4,1,1,4,100,,,,
19:09:44,0,0.475179253,0.638041115,0,0,0.011136928,0.532577044,0,0,0.086914359,0.186670637,0,0,0.87696914,-0.191402922,0,0,0.517057284,-0.3427324,0,406.1538462,786.1172161,805.4578755,375.9340659,779.2673993,897.3260073,-0.018921,-0.14624,0.97052,17.129364,6.273041,3.244934,1,4,1,1,4,100,,,,
19:09:44,0,0.475179253,0.638041115,0,0,0.011136928,0.532577044,0,0,0.086914359,0.186670637,0,0,0.87696914,-0.191402922,0,0,0.517057284,-0.3427324,0,0,778.8644689,802.2344322,0,817.9487179,786.1172161,-0.018921,-0.14624,0.97052,17.129364,6.273041,3.244934,1,4,1,1,4,100,,,,
19:09:44,0,0.475179253,0.638041115,0,0,0.011136928,0.532577044,0,0,0.086914359,0.186670637,0,0,0.87696914,-0.191402922,0,0,0.517057284,-0.3427324,0,205.4945055,774.4322344,798.6080586,181.3186813,777.2527473,666.4468864,-0.018921,-0.14624,0.97052,17.129364,6.273041,3.244934,1,4,1,1,4,100,,,,
19:09:44,0,0.475179253,0.638041115,0,0,0.011136928,0.532577044,0,0,0.086914359,0.186670637,0,0,0.87696914,-0.191402922,0,0,0.517057284,-0.3427324,0,1359.487179,783.6996337,803.8461538,1344.981685,774.029304,865.0915751,-0.018921,-0.14624,0.97052,17.129364,6.273041,3.244934,1,4,1,1,4,100,,,,
19:09:44,0,0.475179253,0.638041115,0,0,0.011136928,0.532577044,0,0,0.086914359,0.186670637,0,0,0.87696914,-0.191402922,0,0,0.517057284,-0.3427324,0,94.28571429,813.9194139,804.6520147,75.75091575,844.9450549,1191.465201,-0.018921,-0.14624,0.97052,17.129364,6.273041,3.244934,1,4,1,1,4,100,,,,
19:09:44,0,0.475179253,0.638041115,0,0,0.011136928,0.532577044,0,0,0.086914359,0.186670637,0,0,0.87696914,-0.191402922,0,0,0.517057284,-0.3427324,0,639.4505495,811.0989011,799.8168498,578.6080586,869.9267399,1107.252747,-0.018921,-0.14624,0.97052,17.129364,6.273041,3.244934,1,4,1,1,4,100,,,,
19:09:44,0,0.475179253,0.638041115,0,0,0.011136928,0.532577044,0,0,0.086914359,0.186670637,0,0,0.87696914,-0.191402922,0,0,0.517057284,-0.3427324,0,0,772.4175824,797.3992674,0,783.6996337,690.6227106,-0.018921,-0.14624,0.97052,17.129364,6.273041,3.244934,1,4,1,1,4,100,,,,
19:09:44,0,0.475179253,0.638041115,0,0,0.011136928,0.532577044,0,0,0.086914359,0.186670637,0,0,0.87696914,-0.191402922,0,0,0.517057284,-0.3427324,0,134.5787546,777.6556777,803.040293,132.5641026,743.4065934,577.8021978,-0.018921,-0.14624,0.97052,17.129364,6.273041,3.244934,1,4,1,1,4,100,,,,
19:09:44,0,0.475179253,0.638041115,0,0,0.011136928,0.532577044,0,0,0.086914359,0.186670637,0,0,0.87696914,-0.191402922,0,0,0.517057284,-0.3427324,0,1253.113553,795.7875458,805.4578755,1262.783883,838.9010989,793.7728938,-0.018921,-0.14624,0.97052,17.129364,6.273041,3.244934,1,4,1,1,4,100,,,,
19:09:44,0,0.475179253,0.638041115,0,0,0.011136928,0.532577044,0,0,0.086914359,0.186670637,0,0,0.87696914,-0.191402922,0,0,0.517057284,-0.3427324,0,143.8461538,790.952381,803.040293,129.3406593,877.5824176,877.5824176,-0.018921,-0.14624,0.97052,17.129364,6.273041,3.244934,1,4,1,1,4,100,,,,
19:09:44,0,0.475179253,0.638041115,0,0,0.011136928,0.532577044,0,0,0.086914359,0.186670637,0,0,0.87696914,-0.191402922,0,0,0.517057284,-0.3427324,0,888.8644689,784.1025641,805.4578755,793.7728938,829.2307692,752.6739927,-0.018921,-0.14624,0.97052,17.129364,6.273041,3.244934,1,4,1,1,4,100,,,,
19:09:44,0,0.475179253,0.638041115,0,0,0.011136928,0.532577044,0,0,0.086914359,0.186670637,0,0,0.87696914,-0.191402922,0,0,0.517057284,-0.3427324,0,0,779.6703297,802.6373626,0,798.2051282,635.4212454,-0.031555,-0.144775,0.968994,14.101257,8.336639,6.362762,1,4,1,1,4,100,,,,
19:09:44,0,0.475179253,0.638041115,0,0,0.011136928,0.532577044,0,0,0.086914359,0.186670637,0,0,0.87696914,-0.191402922,0,0,0.517057284,-0.3427324,0,113.2234432,784.9084249,800.6227106,117.2527473,808.6813187,688.6080586,-0.031555,-0.144775,0.968994,14.101257,8.336639,6.362762,1,4,1,1,4,100,,,,
19:09:44,0,0.475179253,0.638041115,0,0,0.011136928,0.532577044,0,0,0.086914359,0.186670637,0,0,0.87696914,-0.191402922,0,0,0.517057284,-0.3427324,0,1253.516484,790.1465201,803.4432234,1257.142857,807.4725275,821.5750916,-0.031555,-0.144775,0.968994,14.101257,8.336639,6.362762,1,4,1,1,4,100,,,,
19:09:44,0,0.475179253,0.638041115,0,0,0.011136928,0.532577044,0,0,0.086914359,0.186670637,0,0,0.87696914,-0.191402922,0,0,0.517057284,-0.3427324,0,150.2930403,793.3699634,800.6227106,143.4432234,805.0549451,832.4542125,-0.031555,-0.144775,0.968994,14.101257,8.336639,6.362762,1,4,1,1,4,100,,,,
19:09:44,0,0.475179253,0.638041115,0,0,0.011136928,0.532577044,0,0,0.086914359,0.186670637,0,0,0.87696914,-0.191402922,0,0,0.517057284,-0.3427324,0,1109.67033,790.1465201,797.8021978,985.5677656,757.9120879,668.0586081,-0.031555,-0.144775,0.968994,14.101257,8.336639,6.362762,1,4,1,1,4,100,,,,
19:09:44,0,0.475179253,0.615706332,0,0,0.011136928,0.468052856,0,0,0.086914359,0.195045932,0,0,0.87696914,-0.18165122,0,0,0.517057284,-0.358331718,0,0,784.9084249,793.7728938,0,747.4358974,829.2307692,-0.031555,-0.144775,0.968994,14.101257,8.336639,6.362762,1,4,1,1,4,100,,,,
19:09:44,0,0.475179253,0.615706332,0,0,0.011136928,0.468052856,0,0,0.086914359,0.195045932,0,0,0.87696914,-0.18165122,0,0,0.517057284,-0.358331718,0,64.87179487,788.9377289,796.5934066,65.27472527,730.9157509,963.003663,-0.031555,-0.144775,0.968994,14.101257,8.336639,6.362762,1,4,1,1,4,100,,,,
19:09:44,0,0.475179253,0.615706332,0,0,0.011136928,0.468052856,0,0,0.086914359,0.195045932,0,0,0.87696914,-0.18165122,0,0,0.517057284,-0.358331718,0,1230.549451,791.3553114,798.6080586,1197.912088,787.3260073,1046.410256,-0.031555,-0.144775,0.968994,14.101257,8.336639,6.362762,1,4,1,1,4,100,,,,
19:09:44,0,0.475179253,0.615706332,0,0,0.011136928,0.468052856,0,0,0.086914359,0.195045932,0,0,0.87696914,-0.18165122,0,0,0.517057284,-0.358331718,0,136.1904762,807.0695971,794.981685,149.0842491,812.3076923,958.5714286,-0.031555,-0.144775,0.968994,14.101257,8.336639,6.362762,1,4,1,1,4,100,,,,
19:09:44,0,0.475179253,0.615706332,0,0,0.011136928,0.468052856,0,0,0.086914359,0.195045932,0,0,0.87696914,-0.18165122,0,0,0.517057284,-0.358331718,0,1351.428571,832.4542125,793.7728938,1270.03663,791.7582418,742.6007326,-0.031555,-0.144775,0.968994,14.101257,8.336639,6.362762,1,4,1,1,4,100,,,,
19:09:44,0,0.475179253,0.615706332,0,0,0.011136928,0.468052856,0,0,0.086914359,0.195045932,0,0,0.87696914,-0.18165122,0,0,0.517057284,-0.358331718,0,174.4688645,807.0695971,793.7728938,135.3846154,804.2490842,694.2490842,-0.031555,-0.144775,0.968994,14.101257,8.336639,6.362762,1,4,1,1,4,100,,,,
19:09:44,0,0.475179253,0.615706332,0,0,0.011136928,0.468052856,0,0,0.086914359,0.195045932,0,0,0.87696914,-0.18165122,0,0,0.517057284,-0.358331718,0,0,778.4615385,795.3846154,0,757.5091575,612.8571429,-0.031555,-0.144775,0.968994,14.101257,8.336639,6.362762,1,4,1,1,4,100,,,,
19:09:44,0,0.475179253,0.615706332,0,0,0.011136928,0.468052856,0,0,0.086914359,0.195045932,0,0,0.87696914,-0.18165122,0,0,0.517057284,-0.358331718,0,1079.85348,790.5494505,795.7875458,1030.695971,765.1648352,686.5934066,-0.054871,-0.132751,1.004028,10.946045,11.245117,7.132874,1,4,1,1,4,100,,,,
19:09:44,0,0.475179253,0.615706332,0,0,0.011136928,0.468052856,0,0,0.086914359,0.195045932,0,0,0.87696914,-0.18165122,0,0,0.517057284,-0.358331718,0,136.1904762,800.6227106,796.1904762,148.2783883,824.3956044,991.2087912,-0.054871,-0.132751,1.004028,10.946045,11.245117,7.132874,1,4,1,1,4,100,,,,
19:09:44,0,0.475179253,0.615706332,0,0,0.011136928,0.468052856,0,0,0.086914359,0.195045932,0,0,0.87696914,-0.18165122,0,0,0.517057284,-0.358331718,0,1395.750916,782.8937729,797.3992674,1328.864469,804.2490842,879.1941392,-0.054871,-0.132751,1.004028,10.946045,11.245117,7.132874,1,4,1,1,4,100,,,,
19:09:44,0,0.475179253,0.615706332,0,0,0.011136928,0.468052856,0,0,0.086914359,0.195045932,0,0,0.87696914,-0.18165122,0,0,0.517057284,-0.358331718,0,256.2637363,773.2234432,799.4139194,211.1355311,769.1941392,663.6263736,-0.054871,-0.132751,1.004028,10.946045,11.245117,7.132874,1,4,1,1,4,100,,,,
19:09:44,0,0.475179253,0.615706332,0,0,0.011136928,0.468052856,0,0,0.086914359,0.195045932,0,0,0.87696914,-0.18165122,0,0,0.517057284,-0.358331718,0,0,784.9084249,799.8168498,0,789.3406593,589.0842491,-0.054871,-0.132751,1.004028,10.946045,11.245117,7.132874,1,4,1,1,4,100,,,,
19:09:44,0,0.475179253,0.615706332,0,0,0.011136928,0.468052856,0,0,0.086914359,0.195045932,0,0,0.87696914,-0.18165122,0,0,0.517057284,-0.358331718,0,837.6923077,781.2820513,797.8021978,752.2710623,816.3369963,873.5531136,-0.054871,-0.132751,1.004028,10.946045,11.245117,7.132874,1,4,1,1,4,100,,,,
19:09:44,0,0.475179253,0.615706332,0,0,0.011136928,0.468052856,0,0,0.086914359,0.195045932,0,0,0.87696914,-0.18165122,0,0,0.517057284,-0.358331718,0,98.31501832,777.2527473,801.4285714,89.85347985,788.9377289,1100.805861,-0.054871,-0.132751,1.004028,10.946045,11.245117,7.132874,1,4,1,1,4,100,,,,
19:09:44,0,0.475179253,0.615706332,0,0,0.011136928,0.468052856,0,0,0.086914359,0.195045932,0,0,0.87696914,-0.18165122,0,0,0.517057284,-0.358331718,0,1434.835165,774.4322344,799.8168498,1388.095238,799.8168498,909.4139194,-0.054871,-0.132751,1.004028,10.946045,11.245117,7.132874,1,4,1,1,4,100,,,,
19:09:44,0,0.475179253,0.615706332,0,0,0.011136928,0.468052856,0,0,0.086914359,0.195045932,0,0,0.87696914,-0.18165122,0,0,0.517057284,-0.358331718,0,305.8241758,770,798.6080586,252.2344322,796.1904762,639.047619,-0.054871,-0.132751,1.004028,10.946045,11.245117,7.132874,1,4,1,1,4,100,,,,
19:09:44,0,0.475179253,0.615706332,0,0,0.011136928,0.468052856,0,0,0.086914359,0.195045932,0,0,0.87696914,-0.18165122,0,0,0.517057284,-0.358331718,0,0,773.6263736,800.2197802,0,843.7362637,697.0695971,-0.054871,-0.132751,1.004028,10.946045,11.245117,7.132874,1,4,1,1,4,100,,,,
19:09:44,0,0.475179253,0.615706332,0,0,0.011136928,0.468052856,0,0,0.086914359,0.195045932,0,0,0.87696914,-0.18165122,0,0,0.517057284,-0.358331718,0,489.1575092,778.0586081,797.8021978,412.6007326,871.5384615,951.7216117,-0.054871,-0.132751,1.004028,10.946045,11.245117,7.132874,1,4,1,1,4,100,,,,
19:09:44,0,0.475179253,0.615706332,0,0,0.011136928,0.468052856,0,0,0.086914359,0.195045932,0,0,0.87696914,-0.18165122,0,0,0.517057284,-0.358331718,0,1622.600733,789.3406593,796.5934066,1598.424908,854.2124542,943.2600733,-0.054871,-0.132751,1.004028,10.946045,11.245117,7.132874,1,4,1,1,4,100,,,,
19:09:44,0,0.475179253,0.615706332,0,0,0.011136928,0.468052856,0,0,0.086914359,0.195045932,0,0,0.87696914,-0.18165122,0,0,0.517057284,-0.358331718,0,1536.373626,805.4578755,797.8021978,1524.285714,788.9377289,687.3992674,-0.077087,-0.146423,1.011292,14.370422,14.430237,5.36087,1,4,1,1,4,100,,,,
19:09:44,0,0.475179253,0.615706332,0,0,0.011136928,0.468052856,0,0,0.086914359,0.195045932,0,0,0.87696914,-0.18165122,0,0,0.517057284,-0.358331718,0,355.3846154,792.1611722,799.8168498,317.9120879,715.2014652,568.1318681,-0.077087,-0.146423,1.011292,14.370422,14.430237,5.36087,1,4,1,1,4,100,,,,
19:09:44,0,0.475179253,0.615706332,0,0,0.011136928,0.468052856,0,0,0.086914359,0.195045932,0,0,0.87696914,-0.18165122,0,0,0.517057284,-0.358331718,0,0,769.5970696,802.2344322,0,757.5091575,644.2857143,-0.077087,-0.146423,1.011292,14.370422,14.430237,5.36087,1,4,1,1,4,100,,,,
19:09:44,0,0.475179253,0.615706332,0,0,0.011136928,0.468052856,0,0,0.086914359,0.195045932,0,0,0.87696914,-0.18165122,0,0,0.517057284,-0.358331718,0,292.5274725,774.8351648,804.6520147,252.2344322,856.2271062,781.6849817,-0.077087,-0.146423,1.011292,14.370422,14.430237,5.36087,1,4,1,1,4,100,,,,
19:09:44,0,0.475179253,0.615706332,0,0,0.011136928,0.468052856,0,0,0.086914359,0.195045932,0,0,0.87696914,-0.18165122,0,0,0.517057284,-0.358331718,0,1518.241758,788.9377289,804.2490842,1485.201465,890.0732601,871.5384615,-0.077087,-0.146423,1.011292,14.370422,14.430237,5.36087,1,4,1,1,4,100,,,,
19:09:44,0,0.475179253,0.615706332,0,0,0.011136928,0.468052856,0,0,0.086914359,0.195045932,0,0,0.87696914,-0.18165122,0,0,0.517057284,-0.358331718,0,1579.89011,791.7582418,800.6227106,1587.142857,838.0952381,985.5677656,-0.077087,-0.146423,1.011292,14.370422,14.430237,5.36087,1,4,1,1,4,100,,,,
19:09:44,0,0.475179253,0.615706332,0,0,0.011136928,0.468052856,0,0,0.086914359,0.195045932,0,0,0.87696914,-0.18165122,0,0,0.517057284,-0.358331718,0,343.6996337,779.6703297,799.4139194,334.4322344,765.1648352,1027.472527,-0.077087,-0.146423,1.011292,14.370422,14.430237,5.36087,1,4,1,1,4,100,,,,
19:09:44,0,0.475179253,0.634091507,0,0,0.011136928,0.424801858,0,0,0.086914359,0.208832506,0,0,0.87696914,-0.174894041,0,0,0.517057284,-0.366415385,0,0,792.967033,799.8168498,0,728.4981685,788.1318681,-0.077087,-0.146423,1.011292,14.370422,14.430237,5.36087,1,4,1,1,4,100,,,,
19:09:44,0,0.475179253,0.634091507,0,0,0.011136928,0.424801858,0,0,0.086914359,0.208832506,0,0,0.87696914,-0.174894041,0,0,0.517057284,-0.366415385,0,178.0952381,824.7985348,799.010989,143.4432234,787.3260073,626.1538462,-0.077087,-0.146423,1.011292,14.370422,14.430237,5.36087,1,4,1,1,4,100,,,,
19:09:44,0,0.475179253,0.634091507,0,0,0.011136928,0.424801858,0,0,0.086914359,0.208832506,0,0,0.87696914,-0.174894041,0,0,0.517057284,-0.366415385,0,1360.695971,804.2490842,800.6227106,1334.505495,873.5531136,813.9194139,-0.077087,-0.146423,1.011292,14.370422,14.430237,5.36087,1,4,1,1,4,100,,,,
19:09:44,0,0.475179253,0.634091507,0,0,0.011136928,0.424801858,0,0,0.086914359,0.208832506,0,0,0.87696914,-0.174894041,0,0,0.517057284,-0.366415385,0,50.76923077,785.3113553,803.8461538,27.8021978,909.4139194,923.9194139,-0.077087,-0.146423,1.011292,14.370422,14.430237,5.36087,1,4,1,1,4,100,,,,
19:09:44,0,0.475179253,0.634091507,0,0,0.011136928,0.424801858,0,0,0.086914359,0.208832506,0,0,0.87696914,-0.174894041,0,0,0.517057284,-0.366415385,0,499.2307692,788.5347985,801.025641,441.2087912,873.1501832,795.3846154,-0.077087,-0.146423,1.011292,14.370422,14.430237,5.36087,1,4,1,1,4,100,,,,
19:09:44,0,0.475179253,0.634091507,0,0,0.011136928,0.424801858,0,0,0.086914359,0.208832506,0,0,0.87696914,-0.174894041,0,0,0.517057284,-0.366415385,0,0,784.1025641,795.3846154,0,737.7655678,545.1648352,-0.080994,-0.120361,0.938232,19.821014,12.568512,5.764618,1,4,1,1,4,100,,,,
19:09:44,0,0.475179253,0.634091507,0,0,0.011136928,0.424801858,0,0,0.086914359,0.208832506,0,0,0.87696914,-0.174894041,0,0,0.517057284,-0.366415385,0,145.8608059,786.5201465,799.010989,141.4285714,741.3919414,774.8351648,-0.080994,-0.120361,0.938232,19.821014,12.568512,5.764618,1,4,1,1,4,100,,,,
19:09:44,0,0.475179253,0.634091507,0,0,0.011136928,0.424801858,0,0,0.086914359,0.208832506,0,0,0.87696914,-0.174894041,0,0,0.517057284,-0.366415385,0,1246.263736,796.996337,805.0549451,1250.29304,812.7106227,1109.67033,-0.080994,-0.120361,0.938232,19.821014,12.568512,5.764618,1,4,1,1,4,100,,,,
19:09:44,0,0.475179253,0.634091507,0,0,0.011136928,0.424801858,0,0,0.086914359,0.208832506,0,0,0.87696914,-0.174894041,0,0,0.517057284,-0.366415385,0,145.8608059,813.5164835,806.2637363,134.981685,719.2307692,809.4871795,-0.080994,-0.120361,0.938232,19.821014,12.568512,5.764618,1,4,1,1,4,100,,,,
19:09:44,0,0.475179253,0.634091507,0,0,0.011136928,0.424801858,0,0,0.086914359,0.208832506,0,0,0.87696914,-0.174894041,0,0,0.517057284,-0.366415385,0,903.3699634,807.0695971,807.4725275,837.2893773,799.8168498,674.5054945,-0.080994,-0.120361,0.938232,19.821014,12.568512,5.764618,1,4,1,1,4,100,,,,
19:09:44,0,0.475179253,0.634091507,0,0,0.011136928,0.424801858,0,0,0.086914359,0.208832506,0,0,0.87696914,-0.174894041,0,0,0.517057284,-0.366415385,0,0,785.7142857,807.4725275,0,837.2893773,908.6080586,-0.080994,-0.120361,0.938232,19.821014,12.568512,5.764618,1,4,1,1,4,100,,,,
19:09:44,0,0.475179253,0.634091507,0,0,0.011136928,0.424801858,0,0,0.086914359,0.208832506,0,0,0.87696914,-0.174894041,0,0,0.517057284,-0.366415385,0,114.4322344,791.7582418,805.4578755,116.8498168,751.8681319,989.1941392,-0.080994,-0.120361,0.938232,19.821014,12.568512,5.764618,1,4,1,1,4,100,,,,
19:09:44,0,0.475179253,0.634091507,0,0,0.011136928,0.424801858,0,0,0.086914359,0.208832506,0,0,0.87696914,-0.174894041,0,0,0.517057284,-0.366415385,0,1251.098901,823.992674,802.6373626,1253.516484,834.8717949,918.2783883,-0.080994,-0.120361,0.938232,19.821014,12.568512,5.764618,1,4,1,1,4,100,,,,
19:09:44,0,0.475179253,0.634091507,0,0,0.011136928,0.424801858,0,0,0.086914359,0.208832506,0,0,0.87696914,-0.174894041,0,0,0.517057284,-0.366415385,0,149.8901099,816.3369963,799.4139194,148.2783883,919.8901099,807.8754579,-0.080994,-0.120361,0.938232,19.821014,12.568512,5.764618,1,4,1,1,4,100,,,,
19:09:44,0,0.475179253,0.634091507,0,0,0.011136928,0.424801858,0,0,0.086914359,0.208832506,0,0,0.87696914,-0.174894041,0,0,0.517057284,-0.366415385,0,1175.750916,791.3553114,798.6080586,1084.285714,855.4212454,743.4065934,-0.080994,-0.120361,0.938232,19.821014,12.568512,5.764618,1,4,1,1,4,100,,,,
19:09:44,0,0.475179253,0.634091507,0,0,0.011136928,0.424801858,0,0,0.086914359,0.208832506,0,0,0.87696914,-0.174894041,0,0,0.517057284,-0.366415385,0,26.996337,788.5347985,797.3992674,5.641025641,816.7399267,714.7985348,-0.080994,-0.120361,0.938232,19.821014,12.568512,5.764618,1,4,1,1,4,100,,,,
19:09:44,0,0.475179253,0.634091507,0,0,0.011136928,0.424801858,0,0,0.086914359,0.208832506,0,0,0.87696914,-0.174894041,0,0,0.517057284,-0.366415385,0,47.54578755,788.1318681,799.4139194,37.87545788,781.6849817,665.6410256,-0.080994,-0.120361,0.938232,19.821014,12.568512,5.764618,1,4,1,1,4,100,,,,
19:09:44,0,0.475179253,0.634091507,0,0,0.011136928,0.424801858,0,0,0.086914359,0.208832506,0,0,0.87696914,-0.174894041,0,0,0.517057284,-0.366415385,0,1226.117216,796.5934066,800.6227106,1183.809524,796.996337,737.3626374,-0.080994,-0.120361,0.938232,19.821014,12.568512,5.764618,1,4,1,1,4,100,,,,
19:09:44,0,0.475179253,0.634091507,0,0,0.011136928,0.424801858,0,0,0.086914359,0.208832506,0,0,0.87696914,-0.174894041,0,0,0.517057284,-0.366415385,0,135.7875458,799.8168498,800.2197802,148.2783883,902.1611722,913.040293,-0.080994,-0.120361,0.938232,19.821014,12.568512,5.764618,1,4,1,1,4,100,,,,
19:09:44,0,0.475179253,0.634091507,0,0,0.011136928,0.424801858,0,0,0.086914359,0.208832506,0,0,0.87696914,-0.174894041,0,0,0.517057284,-0.366415385,0,1351.025641,794.1758242,798.2051282,1277.692308,911.8315018,893.2967033,-0.080994,-0.120361,0.938232,19.821014,12.568512,5.764618,1,4,1,1,4,100,,,,
19:09:44,0,0.475179253,0.634091507,0,0,0.011136928,0.424801858,0,0,0.086914359,0.208832506,0,0,0.87696914,-0.174894041,0,0,0.517057284,-0.366415385,0,165.2014652,789.3406593,794.981685,132.1611722,769.5970696,690.2197802,-0.080994,-0.120361,0.938232,19.821014,12.568512,5.764618,1,4,1,1,4,100,,,,
19:09:44,0,0.475179253,0.634091507,0,0,0.011136928,0.424801858,0,0,0.086914359,0.208832506,0,0,0.87696914,-0.174894041,0,0,0.517057284,-0.366415385,0,0,790.5494505,793.7728938,0,673.2967033,638.2417582,-0.080994,-0.120361,0.938232,19.821014,12.568512,5.764618,1,4,1,1,4,100,,,,
19:09:44,0,0.475179253,0.634091507,0,0,0.011136928,0.424801858,0,0,0.086914359,0.208832506,0,0,0.87696914,-0.174894041,0,0,0.517057284,-0.366415385,0,1117.728938,795.3846154,794.1758242,1061.318681,830.8424908,1059.70696,-0.080994,-0.120361,0.938232,19.821014,12.568512,5.764618,1,4,1,1,4,100,,,,
19:09:44,0,0.475179253,0.634091507,0,0,0.011136928,0.424801858,0,0,0.086914359,0.208832506,0,0,0.87696914,-0.174894041,0,0,0.517057284,-0.366415385,0,116.8498168,806.2637363,795.7875458,129.3406593,871.5384615,1233.369963,-0.080994,-0.120361,0.938232,19.821014,12.568512,5.764618,1,4,1,1,4,100,,,,
19:09:44,0,0.475179253,0.634091507,0,0,0.011136928,0.424801858,0,0,0.086914359,0.208832506,0,0,0.87696914,-0.174894041,0,0,0.517057284,-0.366415385,0,1464.249084,838.4981685,796.996337,1425.567766,704.3223443,761.1355311,-0.080994,-0.120361,0.938232,19.821014,12.568512,5.764618,1,4,1,1,4,100,,,,
19:09:44,0,0.475179253,0.634091507,0,0,0.011136928,0.424801858,0,0,0.086914359,0.208832506,0,0,0.87696914,-0.174894041,0,0,0.517057284,-0.366415385,0,313.4798535,812.7106227,796.996337,280.03663,646.3003663,392.8571429,-0.080994,-0.120361,0.938232,19.821014,12.568512,5.764618,1,4,1,1,4,100,,,,
19:09:44,0,0.475179253,0.678856243,0,0,0.011136928,0.41364724,0,0,0.086914359,0.270094232,0,0,0.87696914,-0.165826664,0,0,0.517057284,-0.369352101,0,0,782.4908425,797.8021978,0,763.1501832,574.1758242,-0.080994,-0.120361,0.938232,19.821014,12.568512,5.764618,1,2,1,1,4,100,,,,
19:09:44,0,0.475179253,0.678856243,0,0,0.011136928,0.41364724,0,0,0.086914359,0.270094232,0,0,0.87696914,-0.165826664,0,0,0.517057284,-0.369352101,0,982.3443223,799.010989,797.3992674,911.025641,844.9450549,820.3663004,-0.080994,-0.120361,0.938232,19.821014,12.568512,5.764618,1,2,1,1,4,100,,,,
19:09:44,0,0.475179253,0.678856243,0,0,0.011136928,0.41364724,0,0,0.086914359,0.270094232,0,0,0.87696914,-0.165826664,0,0,0.517057284,-0.369352101,0,108.3882784,796.5934066,795.7875458,93.88278388,884.029304,918.2783883,-0.080994,-0.120361,0.938232,19.821014,12.568512,5.764618,1,2,1,1,4,100,,,,
19:09:44,0,0.475179253,0.678856243,0,0,0.011136928,0.41364724,0,0,0.086914359,0.270094232,0,0,0.87696914,-0.165826664,0,0,0.517057284,-0.369352101,0,1486.410256,782.8937729,799.8168498,1498.498168,871.5384615,880.8058608,-0.031311,-0.017578,0.918945,24.755707,3.783264,-1.532745,1,2,1,1,4,100,,,,
19:09:44,0,0.475179253,0.678856243,0,0,0.011136928,0.41364724,0,0,0.086914359,0.270094232,0,0,0.87696914,-0.165826664,0,0,0.517057284,-0.369352101,0,371.5018315,780.0732601,799.4139194,383.5897436,813.5164835,915.0549451,-0.031311,-0.017578,0.918945,24.755707,3.783264,-1.532745,1,2,1,1,4,100,,,,
19:09:44,0,0.475179253,0.678856243,0,0,0.011136928,0.41364724,0,0,0.086914359,0.270094232,0,0,0.87696914,-0.165826664,0,0,0.517057284,-0.369352101,0,0,809.8901099,796.5934066,0,788.9377289,829.2307692,-0.031311,-0.017578,0.918945,24.755707,3.783264,-1.532745,1,2,1,1,4,100,,,,
19:09:44,0,0.475179253,0.678856243,0,0,0.011136928,0.41364724,0,0,0.086914359,0.270094232,0,0,0.87696914,-0.165826664,0,0,0.517057284,-0.369352101,0,724.4688645,812.3076923,798.6080586,645.8974359,855.8241758,773.6263736,-0.031311,-0.017578,0.918945,24.755707,3.783264,-1.532745,1,2,1,1,4,100,,,,
19:09:44,0,0.475179253,0.678856243,0,0,0.011136928,0.41364724,0,0,0.086914359,0.270094232,0,0,0.87696914,-0.165826664,0,0,0.517057284,-0.369352101,0,12.49084249,781.6849817,808.6813187,1641.538462,870.3296703,819.1575092,-0.031311,-0.017578,0.918945,24.755707,3.783264,-1.532745,1,2,1,1,4,100,,,,
19:09:44,0,0.475179253,0.678856243,0,0,0.011136928,0.41364724,0,0,0.086914359,0.270094232,0,0,0.87696914,-0.165826664,0,0,0.517057284,-0.369352101,0,1604.871795,782.0879121,812.7106227,1606.886447,861.4652015,1052.454212,-0.031311,-0.017578,0.918945,24.755707,3.783264,-1.532745,1,2,1,1,4,100,,,,
19:09:44,0,0.475179253,0.678856243,0,0,0.011136928,0.41364724,0,0,0.086914359,0.270094232,0,0,0.87696914,-0.165826664,0,0,0.517057284,-0.369352101,0,557.2527473,814.3223443,803.8461538,535.8974359,823.5897436,1122.564103,-0.031311,-0.017578,0.918945,24.755707,3.783264,-1.532745,1,2,1,1,4,100,,,,
19:09:44,0,0.475179253,0.678856243,0,0,0.011136928,0.41364724,0,0,0.086914359,0.270094232,0,0,0.87696914,-0.165826664,0,0,0.517057284,-0.369352101,0,0,814.7252747,801.025641,0,777.6556777,897.7289377,-0.031311,-0.017578,0.918945,24.755707,3.783264,-1.532745,1,2,1,1,4,100,,,,
19:09:44,0,0.475179253,0.678856243,0,0,0.011136928,0.41364724,0,0,0.086914359,0.270094232,0,0,0.87696914,-0.165826664,0,0,0.517057284,-0.369352101,0,368.2783883,792.967033,802.2344322,338.0586081,750.2564103,616.8864469,-0.031311,-0.017578,0.918945,24.755707,3.783264,-1.532745,1,2,1,1,4,100,,,,
19:09:44,0,0.475179253,0.678856243,0,0,0.011136928,0.41364724,0,0,0.086914359,0.270094232,0,0,0.87696914,-0.165826664,0,0,0.517057284,-0.369352101,0,1511.794872,810.6959707,801.4285714,1494.871795,825.2014652,759.5238095,-0.031311,-0.017578,0.918945,24.755707,3.783264,-1.532745,1,2,1,1,4,100,,,,
19:09:44,0,0.475179253,0.678856243,0,0,0.011136928,0.41364724,0,0,0.086914359,0.270094232,0,0,0.87696914,-0.165826664,0,0,0.517057284,-0.369352101,0,47.14285714,828.8278388,799.010989,42.71062271,836.8864469,867.1062271,-0.031311,-0.017578,0.918945,24.755707,3.783264,-1.532745,1,2,1,1,4,100,,,,
19:09:44,0,0.475179253,0.678856243,0,0,0.011136928,0.41364724,0,0,0.086914359,0.270094232,0,0,0.87696914,-0.165826664,0,0,0.517057284,-0.369352101,0,618.9010989,816.3369963,794.981685,606.007326,774.8351648,697.4725275,-0.031311,-0.017578,0.918945,24.755707,3.783264,-1.532745,1,2,1,1,4,100,,,,
19:09:44,0,0.475179253,0.678856243,0,0,0.011136928,0.41364724,0,0,0.086914359,0.270094232,0,0,0.87696914,-0.165826664,0,0,0.517057284,-0.369352101,0,0,814.7252747,788.9377289,0,842.1245421,689.010989,-0.008972,0.039368,0.940979,30.535278,5.091705,-11.626434,1,2,1,1,4,100,,,,
19:09:44,0,0.475179253,0.678856243,0,0,0.011136928,0.41364724,0,0,0.086914359,0.270094232,0,0,0.87696914,-0.165826664,0,0,0.517057284,-0.369352101,0,284.4688645,825.2014652,785.7142857,243.7728938,838.0952381,745.018315,-0.008972,0.039368,0.940979,30.535278,5.091705,-11.626434,1,2,1,1,4,100,,,,
19:09:44,0,0.475179253,0.678856243,0,0,0.011136928,0.41364724,0,0,0.086914359,0.270094232,0,0,0.87696914,-0.165826664,0,0,0.517057284,-0.369352101,0,1394.945055,832.8571429,786.5201465,1365.934066,784.9084249,834.4688645,-0.008972,0.039368,0.940979,30.535278,5.091705,-11.626434,1,2,1,1,4,100,,,,
19:09:44,0,0.475179253,0.678856243,0,0,0.011136928,0.41364724,0,0,0.086914359,0.270094232,0,0,0.87696914,-0.165826664,0,0,0.517057284,-0.369352101,0,121.6849817,829.6336996,781.6849817,123.2967033,839.3040293,884.029304,-0.008972,0.039368,0.940979,30.535278,5.091705,-11.626434,1,2,1,1,4,100,,,,
19:09:44,0,0.475179253,0.678856243,0,0,0.011136928,0.41364724,0,0,0.086914359,0.270094232,0,0,0.87696914,-0.165826664,0,0,0.517057284,-0.369352101,0,1048.424908,821.978022,777.6556777,983.5531136,823.992674,692.6373626,-0.008972,0.039368,0.940979,30.535278,5.091705,-11.626434,1,2,1,1,4,100,,,,
19:09:44,0,0.475179253,0.678856243,0,0,0.011136928,0.41364724,0,0,0.086914359,0.270094232,0,0,0.87696914,-0.165826664,0,0,0.517057284,-0.369352101,0,0,833.6630037,774.8351648,0,789.7435897,875.5677656,-0.008972,0.039368,0.940979,30.535278,5.091705,-11.626434,1,2,1,1,4,100,,,,
19:09:44,0,0.475179253,0.678856243,0,0,0.011136928,0.41364724,0,0,0.086914359,0.270094232,0,0,0.87696914,-0.165826664,0,0,0.517057284,-0.369352101,0,121.6849817,850.5860806,774.029304,109.1941392,821.978022,1105.238095,-0.008972,0.039368,0.940979,30.535278,5.091705,-11.626434,1,2,1,1,4,100,,,,
19:09:44,0,0.475179253,0.678856243,0,0,0.011136928,0.41364724,0,0,0.086914359,0.270094232,0,0,0.87696914,-0.165826664,0,0,0.517057284,-0.369352101,0,1303.076923,842.1245421,779.6703297,1284.139194,915.8608059,1029.084249,-0.008972,0.039368,0.940979,30.535278,5.091705,-11.626434,1,2,1,1,4,100,,,,
19:09:44,0,0.475179253,0.678856243,0,0,0.011136928,0.41364724,0,0,0.086914359,0.270094232,0,0,0.87696914,-0.165826664,0,0,0.517057284,-0.369352101,0,139.8168498,832.0512821,786.5201465,139.4139194,910.2197802,879.5970696,-0.008972,0.039368,0.940979,30.535278,5.091705,-11.626434,1,2,1,1,4,100,,,,
19:09:44,0,0.475179253,0.678856243,0,0,0.011136928,0.41364724,0,0,0.086914359,0.270094232,0,0,0.87696914,-0.165826664,0,0,0.517057284,-0.369352101,0,1127.399267,835.6776557,784.1025641,1051.245421,803.040293,801.025641,-0.008972,0.039368,0.940979,30.535278,5.091705,-11.626434,1,2,1,1,4,100,,,,
19:09:44,0,0.475179253,0.678856243,0,0,0.011136928,0.41364724,0,0,0.086914359,0.270094232,0,0,0.87696914,-0.165826664,0,0,0.517057284,-0.369352101,0,0,827.6190476,786.1172161,0,722.8571429,839.3040293,-0.008972,0.039368,0.940979,30.535278,5.091705,-11.626434,1,2,1,1,4,100,,,,
19:09:44,0,0.475179253,0.719630538,0,0,0.011136928,0.420642261,0,0,0.086914359,0.337477409,0,0,0.87696914,-0.153148063,0,0,0.517057284,-0.372738302,0,77.76556777,815.5311355,791.7582418,83.40659341,658.3882784,589.0842491,-0.008972,0.039368,0.940979,30.535278,5.091705,-11.626434,1,2,1,1,4,100,,,,
19:09:44,0,0.475179253,0.719630538,0,0,0.011136928,0.420642261,0,0,0.086914359,0.337477409,0,0,0.87696914,-0.153148063,0,0,0.517057284,-0.372738302,0,1269.6337,819.1575092,794.5787546,1272.051282,693.8461538,628.974359,-0.011047,0.062195,0.923096,28.531494,7.648773,-17.009735,1,2,1,1,4,100,,,,
19:09:44,0,0.475179253,0.719630538,0,0,0.011136928,0.420642261,0,0,0.086914359,0.337477409,0,0,0.87696914,-0.153148063,0,0,0.517057284,-0.372738302,0,145.4578755,846.5567766,794.5787546,143.8461538,818.3516484,1039.157509,-0.011047,0.062195,0.923096,28.531494,7.648773,-17.009735,1,2,1,1,4,100,,,,
19:09:44,0,0.475179253,0.719630538,0,0,0.011136928,0.420642261,0,0,0.086914359,0.337477409,0,0,0.87696914,-0.153148063,0,0,0.517057284,-0.372738302,0,1142.307692,841.3186813,796.5934066,1033.919414,850.5860806,912.2344322,-0.011047,0.062195,0.923096,28.531494,7.648773,-17.009735,1,2,1,1,4,100,,,,
19:09:44,0,0.475179253,0.719630538,0,0,0.011136928,0.420642261,0,0,0.086914359,0.337477409,0,0,0.87696914,-0.153148063,0,0,0.517057284,-0.372738302,0,14.50549451,804.2490842,796.5934066,0,736.959707,599.1575092,-0.011047,0.062195,0.923096,28.531494,7.648773,-17.009735,1,2,1,1,4,100,,,,
19:09:44,0,0.475179253,0.719630538,0,0,0.011136928,0.420642261,0,0,0.086914359,0.337477409,0,0,0.87696914,-0.153148063,0,0,0.517057284,-0.372738302,0,43.91941392,806.6666667,795.7875458,8.864468864,814.7252747,641.4652015,-0.011047,0.062195,0.923096,28.531494,7.648773,-17.009735,1,2,1,1,4,100,,,,
19:09:44,0,0.475179253,0.719630538,0,0,0.011136928,0.420642261,0,0,0.086914359,0.337477409,0,0,0.87696914,-0.153148063,0,0,0.517057284,-0.372738302,0,1224.505495,817.9487179,794.981685,1144.322344,864.6886447,984.7619048,-0.011047,0.062195,0.923096,28.531494,7.648773,-17.009735,1,2,1,1,4,100,,,,
19:09:44,0,0.475179253,0.719630538,0,0,0.011136928,0.420642261,0,0,0.086914359,0.337477409,0,0,0.87696914,-0.153148063,0,0,0.517057284,-0.372738302,0,156.3369963,814.3223443,790.952381,161.1721612,810.6959707,1145.128205,-0.011047,0.062195,0.923096,28.531494,7.648773,-17.009735,1,2,1,1,4,100,,,,
19:09:44,0,0.475179253,0.719630538,0,0,0.011136928,0.420642261,0,0,0.086914359,0.337477409,0,0,0.87696914,-0.153148063,0,0,0.517057284,-0.372738302,0,1115.714286,799.8168498,788.1318681,993.6263736,843.3333333,917.8754579,-0.011047,0.062195,0.923096,28.531494,7.648773,-17.009735,1,2,1,1,4,100,,,,
19:09:44,0,0.475179253,0.719630538,0,0,0.011136928,0.420642261,0,0,0.086914359,0.337477409,0,0,0.87696914,-0.153148063,0,0,0.517057284,-0.372738302,0,47.94871795,801.025641,788.1318681,26.19047619,840.5128205,686.996337,-0.011047,0.062195,0.923096,28.531494,7.648773,-17.009735,1,2,1,1,4,100,,,,
19:09:44,0,0.475179253,0.719630538,0,0,0.011136928,0.420642261,0,0,0.086914359,0.337477409,0,0,0.87696914,-0.153148063,0,0,0.517057284,-0.372738302,0,0,814.7252747,786.9230769,0,801.8315018,664.029304,-0.011047,0.062195,0.923096,28.531494,7.648773,-17.009735,1,2,1,1,4,100,,,,
19:09:44,0,0.475179253,0.719630538,0,0,0.011136928,0.420642261,0,0,0.086914359,0.337477409,0,0,0.87696914,-0.153148063,0,0,0.517057284,-0.372738302,0,1007.728938,809.4871795,790.952381,872.7472527,799.8168498,765.1648352,-0.011047,0.062195,0.923096,28.531494,7.648773,-17.009735,1,2,1,1,4,100,,,,
19:09:44,0,0.475179253,0.719630538,0,0,0.011136928,0.420642261,0,0,0.086914359,0.337477409,0,0,0.87696914,-0.153148063,0,0,0.517057284,-0.372738302,0,164.3956044,803.8461538,792.967033,151.0989011,834.0659341,836.0805861,-0.011047,0.062195,0.923096,28.531494,7.648773,-17.009735,1,2,1,1,4,100,,,,
19:09:44,0,0.475179253,0.719630538,0,0,0.011136928,0.420642261,0,0,0.086914359,0.337477409,0,0,0.87696914,-0.153148063,0,0,0.517057284,-0.372738302,0,1269.230769,804.2490842,794.981685,1180.586081,815.9340659,745.4212454,-0.063293,0.139893,0.947571,28.367004,8.336639,-8.815155,1,2,1,1,4,100,,,,
19:09:44,0,0.475179253,0.719630538,0,0,0.011136928,0.420642261,0,0,0.086914359,0.337477409,0,0,0.87696914,-0.153148063,0,0,0.517057284,-0.372738302,0,149.4871795,810.2930403,795.3846154,114.029304,776.043956,810.6959707,-0.063293,0.139893,0.947571,28.367004,8.336639,-8.815155,1,2,1,1,4,100,,,,
19:09:44,0,0.475179253,0.719630538,0,0,0.011136928,0.420642261,0,0,0.086914359,0.337477409,0,0,0.87696914,-0.153148063,0,0,0.517057284,-0.372738302,0,0,798.2051282,792.967033,0,821.1721612,781.2820513,-0.063293,0.139893,0.947571,28.367004,8.336639,-8.815155,1,2,1,1,4,100,,,,
19:09:44,0,0.475179253,0.719630538,0,0,0.011136928,0.420642261,0,0,0.086914359,0.337477409,0,0,0.87696914,-0.153148063,0,0,0.517057284,-0.372738302,0,772.4175824,791.7582418,795.3846154,596.7399267,869.1208791,784.9084249,-0.063293,0.139893,0.947571,28.367004,8.336639,-8.815155,1,2,1,1,4,100,,,,
19:09:44,0,0.475179253,0.719630538,0,0,0.011136928,0.420642261,0,0,0.086914359,0.337477409,0,0,0.87696914,-0.153148063,0,0,0.517057284,-0.372738302,0,71.31868132,807.8754579,795.7875458,31.42857143,844.9450549,858.6446886,-0.063293,0.139893,0.947571,28.367004,8.336639,-8.815155,1,2,1,1,4,100,,,,
19:09:44,0,0.475179253,0.719630538,0,0,0.011136928,0.420642261,0,0,0.086914359,0.337477409,0,0,0.87696914,-0.153148063,0,0,0.517057284,-0.372738302,0,1483.589744,812.7106227,791.7582418,1480.3663,866.3003663,1033.919414,-0.063293,0.139893,0.947571,28.367004,8.336639,-8.815155,1,2,1,1,4,100,,,,
19:09:44,0,0.475179253,0.719630538,0,0,0.011136928,0.420642261,0,0,0.086914359,0.337477409,0,0,0.87696914,-0.153148063,0,0,0.517057284,-0.372738302,0,360.2197802,792.967033,793.3699634,320.3296703,864.2857143,1049.6337,-0.063293,0.139893,0.947571,28.367004,8.336639,-8.815155,1,2,1,1,4,100,,,,
19:09:44,0,0.475179253,0.719630538,0,0,0.011136928,0.420642261,0,0,0.086914359,0.337477409,0,0,0.87696914,-0.153148063,0,0,0.517057284,-0.372738302,0,0,781.2820513,794.5787546,0,796.5934066,774.029304,-0.063293,0.139893,0.947571,28.367004,8.336639,-8.815155,1,2,1,1,4,100,,,,
19:09:44,0,0.475179253,0.719630538,0,0,0.011136928,0.420642261,0,0,0.086914359,0.337477409,0,0,0.87696914,-0.153148063,0,0,0.517057284,-0.372738302,0,412.1978022,805.0549451,792.5641026,327.5824176,798.6080586,644.2857143,-0.063293,0.139893,0.947571,28.367004,8.336639,-8.815155,1,2,1,1,4,100,,,,
19:09:44,0,0.475179253,0.719630538,0,0,0.011136928,0.420642261,0,0,0.086914359,0.337477409,0,0,0.87696914,-0.153148063,0,0,0.517057284,-0.372738302,0,1590.769231,830.8424908,796.1904762,1544.835165,845.7509158,805.4578755,-0.063293,0.139893,0.947571,28.367004,8.336639,-8.815155,1,2,1,1,4,100,,,,
19:09:44,0,0.475179253,0.719630538,0,0,0.011136928,0.420642261,0,0,0.086914359,0.337477409,0,0,0.87696914,-0.153148063,0,0,0.517057284,-0.372738302,0,1549.267399,799.010989,798.2051282,1562.161172,825.2014652,817.5457875,-0.063293,0.139893,0.947571,28.367004,8.336639,-8.815155,1,2,1,1,4,100,,,,
19:09:44,0,0.475179253,0.719630538,0,0,0.011136928,0.420642261,0,0,0.086914359,0.337477409,0,0,0.87696914,-0.153148063,0,0,0.517057284,-0.372738302,0,347.3260073,782.4908425,796.996337,334.8351648,775.2380952,664.4322344,-0.063293,0.139893,0.947571,28.367004,8.336639,-8.815155,1,2,1,1,4,100,,,,
19:09:44,0,0.475179253,0.719630538,0,0,0.011136928,0.420642261,0,0,0.086914359,0.337477409,0,0,0.87696914,-0.153148063,0,0,0.517057284,-0.372738302,0,0,787.7289377,800.6227106,0,768.3882784,590.6959707,-0.063293,0.139893,0.947571,28.367004,8.336639,-8.815155,1,2,1,1,4,100,,,,
19:09:44,0,0.475179253,0.74346851,0,0,0.011136928,0.421474941,0,0,0.086914359,0.372344613,0,0,0.87696914,-0.140764068,0,0,0.517057284,-0.380199626,0,253.4432234,792.5641026,803.4432234,242.967033,771.6117216,841.7216117,-0.063293,0.139893,0.947571,28.367004,8.336639,-8.815155,1,2,1,1,4,100,,,,
19:09:44,0,0.475179253,0.74346851,0,0,0.011136928,0.421474941,0,0,0.086914359,0.372344613,0,0,0.87696914,-0.140764068,0,0,0.517057284,-0.380199626,0,1458.608059,793.7728938,805.0549451,1420.732601,804.2490842,903.3699634,-0.063293,0.139893,0.947571,28.367004,8.336639,-8.815155,1,2,1,1,4,100,,,,
19:09:44,0,0.475179253,0.74346851,0,0,0.011136928,0.421474941,0,0,0.086914359,0.372344613,0,0,0.87696914,-0.140764068,0,0,0.517057284,-0.380199626,0,1645.164835,784.9084249,807.0695971,46.33699634,817.9487179,836.0805861,-0.063293,0.139893,0.947571,28.367004,8.336639,-8.815155,1,2,1,1,4,100,,,,
19:09:44,0,0.475179253,0.74346851,0,0,0.011136928,0.421474941,0,0,0.086914359,0.372344613,0,0,0.87696914,-0.140764068,0,0,0.517057284,-0.380199626,0,436.7765568,818.3516484,805.8608059,537.9120879,802.2344322,846.5567766,-0.063293,0.139893,0.947571,28.367004,8.336639,-8.815155,1,2,1,1,4,100,,,,
19:09:44,0,0.475179253,0.74346851,0,0,0.011136928,0.421474941,0,0,0.086914359,0.372344613,0,0,0.87696914,-0.140764068,0,0,0.517057284,-0.380199626,0,0,811.0989011,803.040293,0,807.0695971,820.3663004,-0.063293,0.139893,0.947571,28.367004,8.336639,-8.815155,1,2,1,1,4,100,,,,
19:09:44,0,0.475179253,0.74346851,0,0,0.011136928,0.421474941,0,0,0.086914359,0.372344613,0,0,0.87696914,-0.140764068,0,0,0.517057284,-0.380199626,0,240.952381,775.6410256,805.0549451,256.6666667,802.2344322,982.3443223,-0.063293,0.139893,0.947571,28.367004,8.336639,-8.815155,1,2,1,1,4,100,,,,
19:09:44,0,0.475179253,0.74346851,0,0,0.011136928,0.421474941,0,0,0.086914359,0.372344613,0,0,0.87696914,-0.140764068,0,0,0.517057284,-0.380199626,0,1332.893773,787.3260073,807.8754579,1342.967033,805.4578755,1071.391941,-0.063293,0.139893,0.947571,28.367004,8.336639,-8.815155,1,2,1,1,4,100,,,,
19:09:44,0,0.475179253,0.74346851,0,0,0.011136928,0.421474941,0,0,0.086914359,0.372344613,0,0,0.87696914,-0.140764068,0,0,0.517057284,-0.380199626,0,130.952381,829.2307692,808.6813187,101.9413919,807.0695971,758.3150183,-0.063293,0.139893,0.947571,28.367004,8.336639,-8.815155,1,2,1,1,4,100,,,,
19:09:44,0,0.475179253,0.74346851,0,0,0.011136928,0.421474941,0,0,0.086914359,0.372344613,0,0,0.87696914,-0.140764068,0,0,0.517057284,-0.380199626,0,1104.029304,817.9487179,808.6813187,1437.252747,796.1904762,629.3772894,-0.063293,0.139893,0.947571,28.367004,8.336639,-8.815155,1,2,1,1,4,100,,,,
19:09:44,0,0.475179253,0.74346851,0,0,0.011136928,0.421474941,0,0,0.086914359,0.372344613,0,0,0.87696914,-0.140764068,0,0,0.517057284,-0.380199626,0,0,772.4175824,805.0549451,163.5897436,798.2051282,687.3992674,-0.063293,0.139893,0.947571,28.367004,8.336639,-8.815155,1,2,1,1,4,100,,,,
19:09:44,0,0.475179253,0.74346851,0,0,0.011136928,0.421474941,0,0,0.086914359,0.372344613,0,0,0.87696914,-0.140764068,0,0,0.517057284,-0.380199626,0,172.0512821,778.8644689,804.2490842,146.2637363,860.2564103,755.8974359,-0.063293,0.139893,0.947571,28.367004,8.336639,-8.815155,1,2,1,1,4,100,,,,
19:09:44,0,0.475179253,0.74346851,0,0,0.011136928,0.421474941,0,0,0.086914359,0.372344613,0,0,0.87696914,-0.140764068,0,0,0.517057284,-0.380199626,0,1366.739927,792.5641026,804.2490842,1436.446886,910.6227106,796.5934066,-0.091309,0.289368,0.95874,23.282776,3.985138,-2.721558,1,2,1,1,4,100,,,,
19:09:44,0,0.475179253,0.74346851,0,0,0.011136928,0.421474941,0,0,0.086914359,0.372344613,0,0,0.87696914,-0.140764068,0,0,0.517057284,-0.380199626,0,114.029304,789.3406593,799.010989,60.43956044,905.3846154,857.4358974,-0.091309,0.289368,0.95874,23.282776,3.985138,-2.721558,1,2,1,1,4,100,,,,
19:09:44,0,0.475179253,0.74346851,0,0,0.011136928,0.421474941,0,0,0.086914359,0.372344613,0,0,0.87696914,-0.140764068,0,0,0.517057284,-0.380199626,0,1325.238095,781.6849817,794.5787546,1519.047619,883.6263736,882.4175824,-0.091309,0.289368,0.95874,23.282776,3.985138,-2.721558,1,2,1,1,4,100,,,,
19:09:44,0,0.475179253,0.74346851,0,0,0.011136928,0.421474941,0,0,0.086914359,0.372344613,0,0,0.87696914,-0.140764068,0,0,0.517057284,-0.380199626,0,109.1941392,777.6556777,796.996337,295.3479853,828.8278388,732.9304029,-0.091309,0.289368,0.95874,23.282776,3.985138,-2.721558,1,2,1,1,4,100,,,,
19:09:44,0,0.475179253,0.74346851,0,0,0.011136928,0.421474941,0,0,0.086914359,0.372344613,0,0,0.87696914,-0.140764068,0,0,0.517057284,-0.380199626,0,19.34065934,780.4761905,796.996337,7.655677656,776.043956,651.9413919,-0.091309,0.289368,0.95874,23.282776,3.985138,-2.721558,1,2,1,1,4,100,,,,
19:09:44,0,0.475179253,0.74346851,0,0,0.011136928,0.421474941,0,0,0.086914359,0.372344613,0,0,0.87696914,-0.140764068,0,0,0.517057284,-0.380199626,0,1314.358974,784.9084249,792.967033,1295.824176,861.8681319,1023.846154,-0.091309,0.289368,0.95874,23.282776,3.985138,-2.721558,1,2,1,1,4,100,,,,
19:09:44,0,0.475179253,0.74346851,0,0,0.011136928,0.421474941,0,0,0.086914359,0.372344613,0,0,0.87696914,-0.140764068,0,0,0.517057284,-0.380199626,0,118.0586081,786.5201465,791.7582418,132.1611722,916.2637363,1253.113553,-0.091309,0.289368,0.95874,23.282776,3.985138,-2.721558,1,2,1,1,4,100,,,,
19:09:44,0,0.475179253,0.74346851,0,0,0.011136928,0.421474941,0,0,0.086914359,0.372344613,0,0,0.87696914,-0.140764068,0,0,0.517057284,-0.380199626,0,744.6153846,793.3699634,792.967033,1307.509158,842.5274725,1093.150183,-0.091309,0.289368,0.95874,23.282776,3.985138,-2.721558,1,2,1,1,4,100,,,,
19:09:44,0,0.475179253,0.74346851,0,0,0.011136928,0.421474941,0,0,0.086914359,0.372344613,0,0,0.87696914,-0.140764068,0,0,0.517057284,-0.380199626,0,0,786.1172161,793.7728938,132.5641026,776.4468864,671.6849817,-0.091309,0.289368,0.95874,23.282776,3.985138,-2.721558,1,2,1,1,4,100,,,,
19:09:44,0,0.475179253,0.74346851,0,0,0.011136928,0.421474941,0,0,0.086914359,0.372344613,0,0,0.87696914,-0.140764068,0,0,0.517057284,-0.380199626,0,2.014652015,776.8498168,797.8021978,0,817.5457875,643.0769231,-0.091309,0.289368,0.95874,23.282776,3.985138,-2.721558,1,2,1,1,4,100,,,,
19:09:44,0,0.475179253,0.74346851,0,0,0.011136928,0.421474941,0,0,0.086914359,0.372344613,0,0,0.87696914,-0.140764068,0,0,0.517057284,-0.380199626,0,1111.684982,784.9084249,803.8461538,1149.157509,847.3626374,858.6446886,-0.091309,0.289368,0.95874,23.282776,3.985138,-2.721558,1,2,1,1,4,100,,,,
19:09:44,0,0.475179253,0.74346851,0,0,0.011136928,0.421474941,0,0,0.086914359,0.372344613,0,0,0.87696914,-0.140764068,0,0,0.517057284,-0.380199626,0,123.2967033,815.1282051,805.0549451,158.7545788,793.7728938,808.6813187,-0.091309,0.289368,0.95874,23.282776,3.985138,-2.721558,1,2,1,1,4,100,,,,
19:09:44,0,0.475179253,0.74346851,0,0,0.011136928,0.421474941,0,0,0.086914359,0.372344613,0,0,0.87696914,-0.140764068,0,0,0.517057284,-0.380199626,0,589.4871795,816.7399267,806.6666667,1029.487179,754.6886447,747.4358974,-0.114563,0.295532,0.96283,5.532837,0.800018,-5.816956,1,2,1,1,4,100,,,,
19:09:44,0,0.475179253,0.74346851,0,0,0.011136928,0.421474941,0,0,0.086914359,0.372344613,0,0,0.87696914,-0.140764068,0,0,0.517057284,-0.380199626,0,0,779.2673993,803.4432234,31.42857143,718.8278388,789.7435897,-0.114563,0.295532,0.96283,5.532837,0.800018,-5.816956,1,2,1,1,4,100,,,,
19:09:44,0,0.475179253,0.74346851,0,0,0.011136928,0.421474941,0,0,0.086914359,0.372344613,0,0,0.87696914,-0.140764068,0,0,0.517057284,-0.380199626,0,0,781.2820513,802.2344322,0,697.0695971,677.3260073,-0.114563,0.295532,0.96283,5.532837,0.800018,-5.816956,1,2,1,1,4,100,,,,
19:09:44,0,0.475179253,0.749842397,0,0,0.011136928,0.405075966,0,0,0.086914359,0.414173833,0,0,0.87696914,-0.130694914,0,0,0.517057284,-0.390176967,0,857.032967,812.7106227,806.6666667,906.1904762,745.4212454,705.9340659,-0.114563,0.295532,0.96283,5.532837,0.800018,-5.816956,1,2,1,1,4,100,,,,
19:09:44,0,0.475179253,0.749842397,0,0,0.011136928,0.405075966,0,0,0.086914359,0.414173833,0,0,0.87696914,-0.130694914,0,0,0.517057284,-0.390176967,0,148.6813187,806.2637363,803.4432234,111.6117216,768.3882784,711.1721612,-0.114563,0.295532,0.96283,5.532837,0.800018,-5.816956,1,2,1,1,4,100,,,,
19:09:44,0,0.475179253,0.749842397,0,0,0.011136928,0.405075966,0,0,0.086914359,0.414173833,0,0,0.87696914,-0.130694914,0,0,0.517057284,-0.390176967,0,1334.505495,780.8791209,799.8168498,1465.457875,819.5604396,949.7069597,-0.114563,0.295532,0.96283,5.532837,0.800018,-5.816956,1,2,1,1,4,100,,,,
19:09:44,0,0.475179253,0.749842397,0,0,0.011136928,0.405075966,0,0,0.086914359,0.414173833,0,0,0.87696914,-0.130694914,0,0,0.517057284,-0.390176967,0,200.2564103,775.2380952,801.4285714,334.8351648,864.2857143,1140.29304,-0.114563,0.295532,0.96283,5.532837,0.800018,-5.816956,1,2,1,1,4,100,,,,
19:09:44,0,0.475179253,0.749842397,0,0,0.011136928,0.405075966,0,0,0.086914359,0.414173833,0,0,0.87696914,-0.130694914,0,0,0.517057284,-0.390176967,0,0,805.8608059,796.996337,0,844.5421245,870.3296703,-0.114563,0.295532,0.96283,5.532837,0.800018,-5.816956,1,2,1,1,4,100,,,,
19:09:44,0,0.475179253,0.749842397,0,0,0.011136928,0.405075966,0,0,0.086914359,0.414173833,0,0,0.87696914,-0.130694914,0,0,0.517057284,-0.390176967,0,697.8754579,810.6959707,796.5934066,697.8754579,792.5641026,600.3663004,-0.114563,0.295532,0.96283,5.532837,0.800018,-5.816956,1,2,1,1,4,100,,,,
19:09:44,0,0.475179253,0.749842397,0,0,0.011136928,0.405075966,0,0,0.086914359,0.414173833,0,0,0.87696914,-0.130694914,0,0,0.517057284,-0.390176967,0,61.64835165,790.5494505,797.8021978,44.32234432,810.6959707,813.5164835,-0.114563,0.295532,0.96283,5.532837,0.800018,-5.816956,1,2,1,1,4,100,,,,
19:09:44,0,0.475179253,0.749842397,0,0,0.011136928,0.405075966,0,0,0.086914359,0.414173833,0,0,0.87696914,-0.130694914,0,0,0.517057284,-0.390176967,0,1453.369963,786.5201465,795.3846154,1500.512821,825.2014652,956.959707,-0.114563,0.295532,0.96283,5.532837,0.800018,-5.816956,1,2,1,1,4,100,,,,
19:09:44,0,0.475179253,0.749842397,0,0,0.011136928,0.405075966,0,0,0.086914359,0.414173833,0,0,0.87696914,-0.130694914,0,0,0.517057284,-0.390176967,0,307.4358974,782.4908425,799.8168498,356.996337,794.1758242,720.03663,-0.114563,0.295532,0.96283,5.532837,0.800018,-5.816956,1,2,1,1,4,100,,,,
19:09:44,0,0.475179253,0.749842397,0,0,0.011136928,0.405075966,0,0,0.086914359,0.414173833,0,0,0.87696914,-0.130694914,0,0,0.517057284,-0.390176967,0,0,770.4029304,801.8315018,0,746.2271062,569.3406593,-0.098694,0.261292,0.971497,-4.762726,-9.024506,-7.708588,1,2,1,1,4,100,,,,
19:09:44,0,0.475179253,0.749842397,0,0,0.011136928,0.405075966,0,0,0.086914359,0.414173833,0,0,0.87696914,-0.130694914,0,0,0.517057284,-0.390176967,0,160.3663004,766.7765568,803.4432234,139.4139194,797.8021978,705.9340659,-0.098694,0.261292,0.971497,-4.762726,-9.024506,-7.708588,1,2,1,1,4,100,,,,
19:09:44,0,0.475179253,0.749842397,0,0,0.011136928,0.405075966,0,0,0.086914359,0.414173833,0,0,0.87696914,-0.130694914,0,0,0.517057284,-0.390176967,0,1454.981685,782.8937729,804.2490842,1429.59707,859.8534799,892.0879121,-0.098694,0.261292,0.971497,-4.762726,-9.024506,-7.708588,1,2,1,1,4,100,,,,
19:09:44,0,0.475179253,0.749842397,0,0,0.011136928,0.405075966,0,0,0.086914359,0.414173833,0,0,0.87696914,-0.130694914,0,0,0.517057284,-0.390176967,0,1178.168498,780.8791209,803.8461538,1271.648352,844.9450549,828.8278388,-0.098694,0.261292,0.971497,-4.762726,-9.024506,-7.708588,1,2,1,1,4,100,,,,
19:09:44,0,0.475179253,0.749842397,0,0,0.011136928,0.405075966,0,0,0.086914359,0.414173833,0,0,0.87696914,-0.130694914,0,0,0.517057284,-0.390176967,0,2.417582418,770.4029304,802.2344322,40.6959707,780.0732601,605.2014652,-0.098694,0.261292,0.971497,-4.762726,-9.024506,-7.708588,1,2,1,1,4,100,,,,
19:09:44,0,0.475179253,0.749842397,0,0,0.011136928,0.405075966,0,0,0.086914359,0.414173833,0,0,0.87696914,-0.130694914,0,0,0.517057284,-0.390176967,0,0,768.7912088,799.8168498,0,753.0769231,795.3846154,-0.098694,0.261292,0.971497,-4.762726,-9.024506,-7.708588,1,2,1,1,4,100,,,,
19:09:44,0,0.475179253,0.749842397,0,0,0.011136928,0.405075966,0,0,0.086914359,0.414173833,0,0,0.87696914,-0.130694914,0,0,0.517057284,-0.390176967,0,62.45421245,792.967033,798.6080586,71.31868132,795.7875458,1081.465201,-0.098694,0.261292,0.971497,-4.762726,-9.024506,-7.708588,1,2,1,1,4,100,,,,
19:09:44,0,0.475179253,0.749842397,0,0,0.011136928,0.405075966,0,0,0.086914359,0.414173833,0,0,0.87696914,-0.130694914,0,0,0.517057284,-0.390176967,0,1370.3663,836.0805861,795.7875458,1363.919414,792.967033,911.025641,-0.098694,0.261292,0.971497,-4.762726,-9.024506,-7.708588,1,2,1,1,4,100,,,,
19:09:44,0,0.475179253,0.749842397,0,0,0.011136928,0.405075966,0,0,0.086914359,0.414173833,0,0,0.87696914,-0.130694914,0,0,0.517057284,-0.390176967,0,1419.92674,798.6080586,793.7728938,1434.029304,828.4249084,682.1611722,-0.098694,0.261292,0.971497,-4.762726,-9.024506,-7.708588,1,2,1,1,4,100,,,,
19:09:44,0,0.475179253,0.749842397,0,0,0.011136928,0.405075966,0,0,0.086914359,0.414173833,0,0,0.87696914,-0.130694914,0,0,0.517057284,-0.390176967,0,110.8058608,772.4175824,799.8168498,127.7289377,797.3992674,649.9267399,-0.098694,0.261292,0.971497,-4.762726,-9.024506,-7.708588,1,2,1,1,4,100,,,,
19:09:44,0,0.475179253,0.749842397,0,0,0.011136928,0.405075966,0,0,0.086914359,0.414173833,0,0,0.87696914,-0.130694914,0,0,0.517057284,-0.390176967,0,0,782.0879121,805.0549451,0,773.6263736,699.8901099,-0.098694,0.261292,0.971497,-4.762726,-9.024506,-7.708588,1,2,1,1,4,100,,,,
19:09:44,0,0.475179253,0.749842397,0,0,0.011136928,0.405075966,0,0,0.086914359,0.414173833,0,0,0.87696914,-0.130694914,0,0,0.517057284,-0.390176967,0,93.07692308,782.0879121,810.6959707,87.83882784,762.7472527,671.2820513,-0.098694,0.261292,0.971497,-4.762726,-9.024506,-7.708588,1,2,1,1,4,100,,,,
19:09:44,0,0.475179253,0.749842397,0,0,0.011136928,0.405075966,0,0,0.086914359,0.414173833,0,0,0.87696914,-0.130694914,0,0,0.517057284,-0.390176967,0,1319.59707,789.7435897,813.5164835,1312.344322,792.967033,740.989011,-0.008789,0.190491,0.948669,-11.439514,-15.66391,-12.8302,1,2,1,1,4,100,,,,
19:09:44,0,0.475179253,0.749842397,0,0,0.011136928,0.405075966,0,0,0.086914359,0.414173833,0,0,0.87696914,-0.130694914,0,0,0.517057284,-0.390176967,0,1615.750916,785.3113553,807.0695971,1614.542125,822.7838828,1037.948718,-0.008789,0.190491,0.948669,-11.439514,-15.66391,-12.8302,1,2,1,1,4,100,,,,
19:09:44,0,0.475179253,0.749842397,0,0,0.011136928,0.405075966,0,0,0.086914359,0.414173833,0,0,0.87696914,-0.130694914,0,0,0.517057284,-0.390176967,0,317.5091575,796.5934066,804.2490842,311.0622711,751.0622711,905.3846154,-0.008789,0.190491,0.948669,-11.439514,-15.66391,-12.8302,1,2,1,1,4,100,,,,
19:09:44,0,0.475179253,0.749842397,0,0,0.011136928,0.405075966,0,0,0.086914359,0.414173833,0,0,0.87696914,-0.130694914,0,0,0.517057284,-0.390176967,0,0,798.2051282,801.4285714,0,747.8388278,624.1391941,-0.008789,0.190491,0.948669,-11.439514,-15.66391,-12.8302,1,2,1,1,4,100,,,,
19:09:44,0,0.475179253,0.749842397,0,0,0.011136928,0.405075966,0,0,0.086914359,0.414173833,0,0,0.87696914,-0.130694914,0,0,0.517057284,-0.390176967,0,117.2527473,777.6556777,799.010989,104.3589744,799.010989,598.3516484,-0.008789,0.190491,0.948669,-11.439514,-15.66391,-12.8302,1,2,1,1,4,100,,,,
19:09:44,0,0.475179253,0.746518107,0,0,0.011136928,0.380362095,0,0,0.086914359,0.486613418,0,0,0.87696914,-0.117399717,0,0,0.517057284,-0.39953355,0,1286.959707,790.952381,805.4578755,1255.531136,789.7435897,920.6959707,-0.008789,0.190491,0.948669,-11.439514,-15.66391,-12.8302,1,2,1,1,4,100,,,,
19:09:44,0,0.475179253,0.746518107,0,0,0.011136928,0.380362095,0,0,0.086914359,0.486613418,0,0,0.87696914,-0.117399717,0,0,0.517057284,-0.39953355,0,59.63369963,832.4542125,807.8754579,78.57142857,753.4798535,1100,-0.008789,0.190491,0.948669,-11.439514,-15.66391,-12.8302,1,2,1,1,4,100,,,,
19:09:44,0,0.475179253,0.746518107,0,0,0.011136928,0.380362095,0,0,0.086914359,0.486613418,0,0,0.87696914,-0.117399717,0,0,0.517057284,-0.39953355,0,484.3223443,808.2783883,801.025641,521.3919414,795.7875458,823.992674,-0.008789,0.190491,0.948669,-11.439514,-15.66391,-12.8302,1,2,1,1,4,100,,,,
19:09:44,0,0.475179253,0.746518107,0,0,0.011136928,0.380362095,0,0,0.086914359,0.486613418,0,0,0.87696914,-0.117399717,0,0,0.517057284,-0.39953355,0,0,768.7912088,795.3846154,0,818.7545788,640.2564103,-0.008789,0.190491,0.948669,-11.439514,-15.66391,-12.8302,1,2,1,1,4,100,,,,
19:09:44,0,0.475179253,0.746518107,0,0,0.011136928,0.380362095,0,0,0.086914359,0.486613418,0,0,0.87696914,-0.117399717,0,0,0.517057284,-0.39953355,0,133.7728938,778.0586081,795.7875458,115.2380952,753.0769231,628.974359,-0.008789,0.190491,0.948669,-11.439514,-15.66391,-12.8302,1,2,1,1,4,100,,,,
19:09:44,0,0.475179253,0.746518107,0,0,0.011136928,0.380362095,0,0,0.086914359,0.486613418,0,0,0.87696914,-0.117399717,0,0,0.517057284,-0.39953355,0,1201.941392,791.7582418,799.8168498,1164.468864,783.6996337,750.2564103,-0.008789,0.190491,0.948669,-11.439514,-15.66391,-12.8302,1,2,1,1,4,100,,,,
19:09:44,0,0.475179253,0.746518107,0,0,0.011136928,0.380362095,0,0,0.086914359,0.486613418,0,0,0.87696914,-0.117399717,0,0,0.517057284,-0.39953355,0,159.1575092,789.7435897,805.4578755,162.3809524,896.1172161,906.996337,-0.008789,0.190491,0.948669,-11.439514,-15.66391,-12.8302,1,2,1,1,4,100,,,,
19:09:44,0,0.475179253,0.746518107,0,0,0.011136928,0.380362095,0,0,0.086914359,0.486613418,0,0,0.87696914,-0.117399717,0,0,0.517057284,-0.39953355,0,1060.10989,782.0879121,803.8461538,1159.6337,896.9230769,829.2307692,-0.008789,0.190491,0.948669,-11.439514,-15.66391,-12.8302,1,2,1,1,4,100,,,,
19:09:44,0,0.475179253,0.746518107,0,0,0.011136928,0.380362095,0,0,0.086914359,0.486613418,0,0,0.87696914,-0.117399717,0,0,0.517057284,-0.39953355,0,0,782.4908425,798.2051282,44.32234432,823.992674,694.2490842,-0.008789,0.190491,0.948669,-11.439514,-15.66391,-12.8302,1,2,1,1,4,100,,,,
19:09:44,0,0.475179253,0.746518107,0,0,0.011136928,0.380362095,0,0,0.086914359,0.486613418,0,0,0.87696914,-0.117399717,0,0,0.517057284,-0.39953355,0,31.02564103,792.5641026,801.4285714,0,776.8498168,664.4322344,-0.008789,0.190491,0.948669,-11.439514,-15.66391,-12.8302,1,2,1,1,4,100,,,,
19:09:44,0,0.475179253,0.746518107,0,0,0.011136928,0.380362095,0,0,0.086914359,0.486613418,0,0,0.87696914,-0.117399717,0,0,0.517057284,-0.39953355,0,1158.827839,802.2344322,805.8608059,1141.501832,832.8571429,856.2271062,-0.008789,0.190491,0.948669,-11.439514,-15.66391,-12.8302,1,2,1,1,4,100,,,,
19:09:44,0,0.475179253,0.746518107,0,0,0.011136928,0.380362095,0,0,0.086914359,0.486613418,0,0,0.87696914,-0.117399717,0,0,0.517057284,-0.39953355,0,135.3846154,799.8168498,803.4432234,123.6996337,793.7728938,837.2893773,-0.008789,0.190491,0.948669,-11.439514,-15.66391,-12.8302,1,2,1,1,4,100,,,,
19:09:44,0,0.475179253,0.746518107,0,0,0.011136928,0.380362095,0,0,0.086914359,0.486613418,0,0,0.87696914,-0.117399717,0,0,0.517057284,-0.39953355,0,1393.333333,799.4139194,798.2051282,1441.684982,692.2344322,870.7326007,-0.008789,0.190491,0.948669,-11.439514,-15.66391,-12.8302,1,2,1,1,4,100,,,,
19:09:44,0,0.475179253,0.746518107,0,0,0.011136928,0.380362095,0,0,0.086914359,0.486613418,0,0,0.87696914,-0.117399717,0,0,0.517057284,-0.39953355,0,223.6263736,812.7106227,792.5641026,281.2454212,705.9340659,993.2234432,-0.008789,0.190491,0.948669,-11.439514,-15.66391,-12.8302,1,2,1,1,4,100,,,,
19:09:44,0,0.475179253,0.746518107,0,0,0.011136928,0.380362095,0,0,0.086914359,0.486613418,0,0,0.87696914,-0.117399717,0,0,0.517057284,-0.39953355,0,0,792.5641026,794.5787546,0,713.992674,680.1465201,-0.008789,0.190491,0.948669,-11.439514,-15.66391,-12.8302,1,2,1,1,4,100,,,,
19:09:44,0,0.475179253,0.746518107,0,0,0.011136928,0.380362095,0,0,0.086914359,0.486613418,0,0,0.87696914,-0.117399717,0,0,0.517057284,-0.39953355,0,1046.007326,787.3260073,799.4139194,1023.846154,808.2783883,699.8901099,-0.008789,0.190491,0.948669,-11.439514,-15.66391,-12.8302,1,2,1,1,4,100,,,,
19:09:44,0,0.475179253,0.746518107,0,0,0.011136928,0.380362095,0,0,0.086914359,0.486613418,0,0,0.87696914,-0.117399717,0,0,0.517057284,-0.39953355,0,114.029304,803.4432234,800.6227106,112.014652,894.9084249,893.6996337,-0.008789,0.190491,0.948669,-11.439514,-15.66391,-12.8302,1,2,1,1,4,100,,,,
19:09:44,0,0.475179253,0.746518107,0,0,0.011136928,0.380362095,0,0,0.086914359,0.486613418,0,0,0.87696914,-0.117399717,0,0,0.517057284,-0.39953355,0,1480.3663,792.5641026,797.3992674,1484.798535,954.5421245,936.007326,-0.008789,0.190491,0.948669,-11.439514,-15.66391,-12.8302,1,2,1,1,4,100,,,,
19:09:44,0,0.475179253,0.746518107,0,0,0.011136928,0.380362095,0,0,0.086914359,0.486613418,0,0,0.87696914,-0.117399717,0,0,0.517057284,-0.39953355,0,354.5787546,780.8791209,795.7875458,361.8315018,848.5714286,716.4102564,-0.008789,0.190491,0.948669,-11.439514,-15.66391,-12.8302,1,2,1,1,4,100,,,,
19:09:44,0,0.475179253,0.746518107,0,0,0.011136928,0.380362095,0,0,0.086914359,0.486613418,0,0,0.87696914,-0.117399717,0,0,0.517057284,-0.39953355,0,0,784.9084249,799.4139194,0,675.7142857,502.0512821,0.019775,0.107971,1.00769,-11.103058,-11.551666,-9.959106,1,2,1,1,4,100,,,,
19:09:44,0,0.475179253,0.746518107,0,0,0.011136928,0.380362095,0,0,0.086914359,0.486613418,0,0,0.87696914,-0.117399717,0,0,0.517057284,-0.39953355,0,832.0512821,804.6520147,805.0549451,792.1611722,762.7472527,905.7875458,0.019775,0.107971,1.00769,-11.103058,-11.551666,-9.959106,1,2,1,1,4,100,,,,
19:09:44,0,0.475179253,0.746518107,0,0,0.011136928,0.380362095,0,0,0.086914359,0.486613418,0,0,0.87696914,-0.117399717,0,0,0.517057284,-0.39953355,0,80.98901099,805.4578755,805.0549451,70.10989011,838.4981685,990.4029304,0.019775,0.107971,1.00769,-11.103058,-11.551666,-9.959106,1,2,1,1,4,100,,,,
19:09:44,0,0.475179253,0.746518107,0,0,0.011136928,0.380362095,0,0,0.086914359,0.486613418,0,0,0.87696914,-0.117399717,0,0,0.517057284,-0.39953355,0,1489.230769,788.1318681,805.8608059,1496.483516,773.6263736,713.992674,0.019775,0.107971,1.00769,-11.103058,-11.551666,-9.959106,1,2,1,1,4,100,,,,
19:09:44,0,0.475179253,0.746518107,0,0,0.011136928,0.380362095,0,0,0.086914359,0.486613418,0,0,0.87696914,-0.117399717,0,0,0.517057284,-0.39953355,0,379.1575092,784.5054945,805.8608059,375.5311355,776.4468864,682.5641026,0.019775,0.107971,1.00769,-11.103058,-11.551666,-9.959106,1,2,1,1,4,100,,,,
19:09:44,0,0.475179253,0.746518107,0,0,0.011136928,0.380362095,0,0,0.086914359,0.486613418,0,0,0.87696914,-0.117399717,0,0,0.517057284,-0.39953355,0,0,791.3553114,799.8168498,0,766.7765568,856.6300366,0.019775,0.107971,1.00769,-11.103058,-11.551666,-9.959106,1,2,1,1,4,100,,,,
19:09:44,0,0.475179253,0.746518107,0,0,0.011136928,0.380362095,0,0,0.086914359,0.486613418,0,0,0.87696914,-0.117399717,0,0,0.517057284,-0.39953355,0,415.8241758,792.967033,800.2197802,422.2710623,753.4798535,965.018315,0.019775,0.107971,1.00769,-11.103058,-11.551666,-9.959106,1,2,1,1,4,100,,,,
19:09:44,,,,,,,,,,,,,,,,,,,,,,,,,,,,,,,,,,,,,,,/muse/elements/blink,,,
19:09:44,0,0.475179253,0.744961455,0,0,0.011136928,0.362966853,0,0,0.086914359,0.565114299,0,0,0.87696914,-0.094568105,0,0,0.517057284,-0.407356518,0,1593.186813,796.1904762,803.8461538,1589.96337,809.8901099,1050.03663,0.019775,0.107971,1.00769,-11.103058,-11.551666,-9.959106,1,2,1,1,4,100,,,,
19:09:44,0,0.475179253,0.744961455,0,0,0.011136928,0.362966853,0,0,0.086914359,0.565114299,0,0,0.87696914,-0.094568105,0,0,0.517057284,-0.407356518,0,1548.461538,795.3846154,798.2051282,1557.326007,815.9340659,821.978022,0.019775,0.107971,1.00769,-11.103058,-11.551666,-9.959106,1,2,1,1,4,100,,,,
19:09:44,0,0.475179253,0.744961455,0,0,0.011136928,0.362966853,0,0,0.086914359,0.565114299,0,0,0.87696914,-0.094568105,0,0,0.517057284,-0.407356518,0,345.3113553,809.4871795,797.3992674,358.6080586,749.8534799,603.1868132,0.019775,0.107971,1.00769,-11.103058,-11.551666,-9.959106,1,2,1,1,4,100,,,,
19:09:44,0,0.475179253,0.744961455,0,0,0.011136928,0.362966853,0,0,0.086914359,0.565114299,0,0,0.87696914,-0.094568105,0,0,0.517057284,-0.407356518,0,0,803.040293,799.4139194,0,697.0695971,559.2673993,0.019775,0.107971,1.00769,-11.103058,-11.551666,-9.959106,1,2,1,1,4,100,,,,
19:09:44,0,0.475179253,0.744961455,0,0,0.011136928,0.362966853,0,0,0.086914359,0.565114299,0,0,0.87696914,-0.094568105,0,0,0.517057284,-0.407356518,0,206.3003663,781.6849817,796.5934066,200.2564103,751.0622711,618.4981685,0.019775,0.107971,1.00769,-11.103058,-11.551666,-9.959106,1,2,1,1,4,100,,,,
19:09:44,0,0.475179253,0.744961455,0,0,0.011136928,0.362966853,0,0,0.086914359,0.565114299,0,0,0.87696914,-0.094568105,0,0,0.517057284,-0.407356518,0,1442.087912,783.6996337,796.996337,1428.388278,821.5750916,711.5750916,0.006714,0.088257,0.96521,-11.245117,-1.256104,-2.773895,1,2,1,1,4,100,,,,
19:09:44,0,0.475179253,0.744961455,0,0,0.011136928,0.362966853,0,0,0.086914359,0.565114299,0,0,0.87696914,-0.094568105,0,0,0.517057284,-0.407356518,0,1592.783883,784.5054945,800.6227106,1611.721612,828.8278388,768.3882784,0.006714,0.088257,0.96521,-11.245117,-1.256104,-2.773895,1,2,1,1,4,100,,,,
19:09:44,0,0.475179253,0.744961455,0,0,0.011136928,0.362966853,0,0,0.086914359,0.565114299,0,0,0.87696914,-0.094568105,0,0,0.517057284,-0.407356518,0,321.9413919,778.8644689,797.3992674,347.3260073,825.2014652,770.8058608,0.006714,0.088257,0.96521,-11.245117,-1.256104,-2.773895,1,2,1,1,4,100,,,,
19:09:44,0,0.475179253,0.744961455,0,0,0.011136928,0.362966853,0,0,0.086914359,0.565114299,0,0,0.87696914,-0.094568105,0,0,0.517057284,-0.407356518,0,0,779.6703297,798.2051282,0,726.8864469,604.3956044,0.006714,0.088257,0.96521,-11.245117,-1.256104,-2.773895,1,2,1,1,4,100,,,,
19:09:44,0,0.475179253,0.744961455,0,0,0.011136928,0.362966853,0,0,0.086914359,0.565114299,0,0,0.87696914,-0.094568105,0,0,0.517057284,-0.407356518,0,103.5531136,783.6996337,799.4139194,103.956044,727.2893773,620.1098901,0.006714,0.088257,0.96521,-11.245117,-1.256104,-2.773895,1,2,1,1,4,100,,,,
19:09:44,0,0.475179253,0.744961455,0,0,0.011136928,0.362966853,0,0,0.086914359,0.565114299,0,0,0.87696914,-0.094568105,0,0,0.517057284,-0.407356518,0,1320.40293,791.7582418,798.2051282,1321.208791,837.6923077,1020.622711,0.006714,0.088257,0.96521,-11.245117,-1.256104,-2.773895,1,2,1,1,4,100,,,,
19:09:44,0,0.475179253,0.744961455,0,0,0.011136928,0.362966853,0,0,0.086914359,0.565114299,0,0,0.87696914,-0.094568105,0,0,0.517057284,-0.407356518,0,1615.750916,790.5494505,796.5934066,1617.765568,811.0989011,1106.043956,0.006714,0.088257,0.96521,-11.245117,-1.256104,-2.773895,1,2,1,1,4,100,,,,
19:09:44,0,0.475179253,0.744961455,0,0,0.011136928,0.362966853,0,0,0.086914359,0.565114299,0,0,0.87696914,-0.094568105,0,0,0.517057284,-0.407356518,0,317.5091575,774.8351648,793.3699634,318.7179487,741.7948718,762.3443223,0.006714,0.088257,0.96521,-11.245117,-1.256104,-2.773895,1,2,1,1,4,100,,,,
19:09:44,0,0.475179253,0.744961455,0,0,0.011136928,0.362966853,0,0,0.086914359,0.565114299,0,0,0.87696914,-0.094568105,0,0,0.517057284,-0.407356518,0,0,780.4761905,793.3699634,0,823.992674,612.8571429,0.006714,0.088257,0.96521,-11.245117,-1.256104,-2.773895,1,2,1,1,4,100,,,,
19:09:44,0,0.475179253,0.744961455,0,0,0.011136928,0.362966853,0,0,0.086914359,0.565114299,0,0,0.87696914,-0.094568105,0,0,0.517057284,-0.407356518,0,111.2087912,796.996337,799.8168498,104.3589744,871.1355311,824.7985348,0.006714,0.088257,0.96521,-11.245117,-1.256104,-2.773895,1,2,1,1,4,100,,,,
19:09:44,0,0.475179253,0.744961455,0,0,0.011136928,0.362966853,0,0,0.086914359,0.565114299,0,0,0.87696914,-0.094568105,0,0,0.517057284,-0.407356518,0,1300.659341,796.1904762,800.2197802,1292.197802,899.7435897,996.043956,0.006714,0.088257,0.96521,-11.245117,-1.256104,-2.773895,1,2,1,1,4,100,,,,
19:09:44,0,0.475179253,0.744961455,0,0,0.011136928,0.362966853,0,0,0.086914359,0.565114299,0,0,0.87696914,-0.094568105,0,0,0.517057284,-0.407356518,0,24.98168498,789.3406593,796.1904762,23.77289377,938.021978,915.0549451,0.006714,0.088257,0.96521,-11.245117,-1.256104,-2.773895,1,2,1,1,4,100,,,,
19:09:44,0,0.475179253,0.744961455,0,0,0.011136928,0.362966853,0,0,0.086914359,0.565114299,0,0,0.87696914,-0.094568105,0,0,0.517057284,-0.407356518,0,407.7655678,778.4615385,797.8021978,400.1098901,865.4945055,716.8131868,-0.069275,0.059204,0.9599,-12.80777,4.329071,2.781372,1,2,1,1,4,100,,,,
19:09:44,0,0.475179253,0.744961455,0,0,0.011136928,0.362966853,0,0,0.086914359,0.565114299,0,0,0.87696914,-0.094568105,0,0,0.517057284,-0.407356518,0,0,777.2527473,799.4139194,0,812.3076923,810.6959707,-0.069275,0.059204,0.9599,-12.80777,4.329071,2.781372,1,2,1,1,4,100,,,,
19:09:44,0,0.475179253,0.744961455,0,0,0.011136928,0.362966853,0,0,0.086914359,0.565114299,0,0,0.87696914,-0.094568105,0,0,0.517057284,-0.407356518,0,81.39194139,783.6996337,798.2051282,60.43956044,778.8644689,773.6263736,-0.069275,0.059204,0.9599,-12.80777,4.329071,2.781372,1,2,1,1,4,100,,,,
19:09:44,0,0.475179253,0.744961455,0,0,0.011136928,0.362966853,0,0,0.086914359,0.565114299,0,0,0.87696914,-0.094568105,0,0,0.517057284,-0.407356518,0,1183.809524,796.996337,801.4285714,1143.919414,832.4542125,769.1941392,-0.069275,0.059204,0.9599,-12.80777,4.329071,2.781372,1,2,1,1,4,100,,,,
19:09:44,0,0.475179253,0.744961455,0,0,0.011136928,0.362966853,0,0,0.086914359,0.565114299,0,0,0.87696914,-0.094568105,0,0,0.517057284,-0.407356518,0,129.3406593,819.5604396,807.8754579,131.3553114,854.2124542,831.6483516,-0.069275,0.059204,0.9599,-12.80777,4.329071,2.781372,1,2,1,1,4,100,,,,
19:09:44,0,0.475179253,0.744961455,0,0,0.011136928,0.362966853,0,0,0.086914359,0.565114299,0,0,0.87696914,-0.094568105,0,0,0.517057284,-0.407356518,0,639.047619,804.2490842,808.2783883,647.1062271,857.032967,971.0622711,-0.069275,0.059204,0.9599,-12.80777,4.329071,2.781372,1,2,1,1,4,100,,,,
19:09:44,0,0.475179253,0.744961455,0,0,0.011136928,0.362966853,0,0,0.086914359,0.565114299,0,0,0.87696914,-0.094568105,0,0,0.517057284,-0.407356518,0,0,783.6996337,806.2637363,0,790.952381,969.8534799,-0.069275,0.059204,0.9599,-12.80777,4.329071,2.781372,1,2,1,1,4,100,,,,
19:09:44,0,0.475179253,0.744961455,0,0,0.011136928,0.362966853,0,0,0.086914359,0.565114299,0,0,0.87696914,-0.094568105,0,0,0.517057284,-0.407356518,0,19.34065934,787.7289377,806.2637363,6.84981685,702.3076923,697.0695971,-0.069275,0.059204,0.9599,-12.80777,4.329071,2.781372,1,2,1,1,4,100,,,,
19:09:44,0,0.475179253,0.744961455,0,0,0.011136928,0.362966853,0,0,0.086914359,0.565114299,0,0,0.87696914,-0.094568105,0,0,0.517057284,-0.407356518,0,1010.952381,808.6813187,809.0842491,981.5384615,713.1868132,566.9230769,-0.069275,0.059204,0.9599,-12.80777,4.329071,2.781372,1,2,1,1,4,100,,,,
19:09:44,0,0.475179253,0.750247769,0,0,0.011136928,0.357510686,0,0,0.086914359,0.600101568,0,0,0.87696914,-0.061690157,0,0,0.517057284,-0.413655601,0,178.0952381,807.8754579,810.2930403,175.6776557,700.2930403,636.2271062,-0.069275,0.059204,0.9599,-12.80777,4.329071,2.781372,1,4,1,1,4,100,,,,
19:09:44,0,0.475179253,0.750247769,0,0,0.011136928,0.357510686,0,0,0.086914359,0.600101568,0,0,0.87696914,-0.061690157,0,0,0.517057284,-0.413655601,0,1021.025641,785.3113553,804.2490842,1039.96337,711.5750916,658.3882784,-0.069275,0.059204,0.9599,-12.80777,4.329071,2.781372,1,4,1,1,4,100,,,,
19:09:44,0,0.475179253,0.750247769,0,0,0.011136928,0.357510686,0,0,0.086914359,0.600101568,0,0,0.87696914,-0.061690157,0,0,0.517057284,-0.413655601,0,23.77289377,781.2820513,800.2197802,45.12820513,762.3443223,631.7948718,-0.069275,0.059204,0.9599,-12.80777,4.329071,2.781372,1,4,1,1,4,100,,,,
