TimeStamp,Delta_TP9,Delta_AF7,Delta_AF8,Delta_TP10,Theta_TP9,Theta_AF7,Theta_AF8,Theta_TP10,Alpha_TP9,Alpha_AF7,Alpha_AF8,Alpha_TP10,Beta_TP9,Beta_AF7,Beta_AF8,Beta_TP10,Gamma_TP9,Gamma_AF7,Gamma_AF8,Gamma_TP10,RAW_TP9,RAW_AF7,RAW_AF8,RAW_TP10,AUX_RIGHT,AUX_LEFT,Accelerometer_X,Accelerometer_Y,Accelerometer_Z,Gyro_X,Gyro_Y,Gyro_Z,HeadBandOn,HSI_TP9,HSI_AF7,HSI_AF8,HSI_TP10,Battery,Elements,,,ToB
19:15:40,,,,,,,,,,,,,,,,,,,,,,,,,,,,,,,,,,,,,,,/muse/event/connected MuseS-49EC,,,19:15:50
19:15:40,1.449839509,0.858120845,0.448057419,0,1.36553622,0.718136177,0.060231207,0,1.239623636,0.717664824,0.297564767,0,0.861625719,1.031549936,0.123419991,0,0.346043056,0.738166236,0.021483138,0,686.996337,784.1025641,817.1428571,509.3040293,793.7728938,649.5238095,-0.398254,0.028503,0.871887,9.10675,-0.740204,-3.252411,1,2,1,1,2,100,,,,
19:15:40,1.449839509,0.858120845,0.448057419,0,1.36553622,0.718136177,0.060231207,0,1.239623636,0.717664824,0.297564767,0,0.861625719,1.031549936,0.123419991,0,0.346043056,0.738166236,0.021483138,0,737.7655678,796.1904762,821.1721612,580.6227106,713.1868132,551.6117216,-0.398254,0.028503,0.871887,9.10675,-0.740204,-3.252411,1,2,1,1,2,100,,,,
19:15:40,1.449839509,0.858120845,0.448057419,0,1.36553622,0.718136177,0.060231207,0,1.239623636,0.717664824,0.297564767,0,0.861625719,1.031549936,0.123419991,0,0.346043056,0.738166236,0.021483138,0,826.8131868,817.5457875,826.4102564,723.6630037,757.9120879,693.8461538,-0.398254,0.028503,0.871887,9.10675,-0.740204,-3.252411,1,2,1,1,2,100,,,,
19:15:40,1.449839509,0.858120845,0.448057419,0,1.36553622,0.718136177,0.060231207,0,1.239623636,0.717664824,0.297564767,0,0.861625719,1.031549936,0.123419991,0,0.346043056,0.738166236,0.021483138,0,851.7948718,822.7838828,826.4102564,738.1684982,869.9267399,838.4981685,-0.398254,0.028503,0.871887,9.10675,-0.740204,-3.252411,1,2,1,1,2,100,,,,
19:15:40,1.449839509,0.858120845,0.448057419,0,1.36553622,0.718136177,0.060231207,0,1.239623636,0.717664824,0.297564767,0,0.861625719,1.031549936,0.123419991,0,0.346043056,0.738166236,0.021483138,0,779.6703297,803.4432234,817.1428571,599.5604396,797.3992674,761.1355311,-0.398254,0.028503,0.871887,9.10675,-0.740204,-3.252411,1,2,1,1,2,100,,,,
19:15:40,1.449839509,0.858120845,0.448057419,0,1.36553622,0.718136177,0.060231207,0,1.239623636,0.717664824,0.297564767,0,0.861625719,1.031549936,0.123419991,0,0.346043056,0.738166236,0.021483138,0,703.5164835,783.2967033,805.8608059,529.4505495,762.7472527,861.0622711,-0.398254,0.028503,0.871887,9.10675,-0.740204,-3.252411,1,2,1,1,2,100,,,,
19:15:40,1.449839509,0.858120845,0.448057419,0,1.36553622,0.718136177,0.060231207,0,1.239623636,0.717664824,0.297564767,0,0.861625719,1.031549936,0.123419991,0,0.346043056,0.738166236,0.021483138,0,724.4688645,787.3260073,812.7106227,600.7692308,788.5347985,950.5128205,-0.398254,0.028503,0.871887,9.10675,-0.740204,-3.252411,1,2,1,1,2,100,,,,
19:15:40,1.449839509,0.858120845,0.448057419,0,1.36553622,0.718136177,0.060231207,0,1.239623636,0.717664824,0.297564767,0,0.861625719,1.031549936,0.123419991,0,0.346043056,0.738166236,0.021483138,0,833.2600733,813.1135531,820.3663004,734.1391941,766.7765568,948.9010989,-0.398254,0.028503,0.871887,9.10675,-0.740204,-3.252411,1,2,1,1,2,100,,,,
19:15:40,1.449839509,0.858120845,0.448057419,0,1.36553622,0.718136177,0.060231207,0,1.239623636,0.717664824,0.297564767,0,0.861625719,1.031549936,0.123419991,0,0.346043056,0.738166236,0.021483138,0,861.0622711,819.96337,820.7692308,749.047619,735.3479853,776.8498168,-0.398254,0.028503,0.871887,9.10675,-0.740204,-3.252411,1,2,1,1,2,100,,,,
19:15:40,1.449839509,0.858120845,0.448057419,0,1.36553622,0.718136177,0.060231207,0,1.239623636,0.717664824,0.297564767,0,0.861625719,1.031549936,0.123419991,0,0.346043056,0.738166236,0.021483138,0,794.5787546,785.7142857,819.96337,642.2710623,812.3076923,629.3772894,-0.398254,0.028503,0.871887,9.10675,-0.740204,-3.252411,1,2,1,1,2,100,,,,
19:15:40,1.449839509,0.858120845,0.448057419,0,1.36553622,0.718136177,0.060231207,0,1.239623636,0.717664824,0.297564767,0,0.861625719,1.031549936,0.123419991,0,0.346043056,0.738166236,0.021483138,0,714.7985348,768.3882784,822.3809524,573.7728938,827.2161172,638.6446886,-0.398254,0.028503,0.871887,9.10675,-0.740204,-3.252411,1,2,1,1,2,100,,,,
19:15:40,1.449839509,0.858120845,0.448057419,0,1.36553622,0.718136177,0.060231207,0,1.239623636,0.717664824,0.297564767,0,0.861625719,1.031549936,0.123419991,0,0.346043056,0.738166236,0.021483138,0,711.5750916,780.8791209,824.3956044,598.7545788,731.3186813,617.2893773,-0.398254,0.028503,0.871887,9.10675,-0.740204,-3.252411,1,2,1,1,2,100,,,,
19:15:40,1.449839509,0.858120845,0.448057419,0,1.36553622,0.718136177,0.060231207,0,1.239623636,0.717664824,0.297564767,0,0.861625719,1.031549936,0.123419991,0,0.346043056,0.738166236,0.021483138,0,801.025641,802.6373626,834.8717949,724.0659341,782.8937729,712.7838828,-0.408508,0.051392,0.865662,6.243134,0.590668,-5.001984,1,2,1,1,2,100,,,,
19:15:40,1.449839509,0.858120845,0.448057419,0,1.36553622,0.718136177,0.060231207,0,1.239623636,0.717664824,0.297564767,0,0.861625719,1.031549936,0.123419991,0,0.346043056,0.738166236,0.021483138,0,854.2124542,809.4871795,829.6336996,759.9267399,833.2600733,750.6593407,-0.408508,0.051392,0.865662,6.243134,0.590668,-5.001984,1,2,1,1,2,100,,,,
19:15:40,1.449839509,0.858120845,0.448057419,0,1.36553622,0.718136177,0.060231207,0,1.239623636,0.717664824,0.297564767,0,0.861625719,1.031549936,0.123419991,0,0.346043056,0.738166236,0.021483138,0,782.4908425,793.3699634,814.7252747,641.8681319,786.9230769,729.3040293,-0.408508,0.051392,0.865662,6.243134,0.590668,-5.001984,1,2,1,1,2,100,,,,
19:15:40,1.449839509,0.858120845,0.448057419,0,1.36553622,0.718136177,0.060231207,0,1.239623636,0.717664824,0.297564767,0,0.861625719,1.031549936,0.123419991,0,0.346043056,0.738166236,0.021483138,0,699.8901099,781.6849817,815.5311355,550.8058608,759.9267399,674.9084249,-0.408508,0.051392,0.865662,6.243134,0.590668,-5.001984,1,2,1,1,2,100,,,,
19:15:40,1.449839509,0.858120845,0.448057419,0,1.36553622,0.718136177,0.060231207,0,1.239623636,0.717664824,0.297564767,0,0.861625719,1.031549936,0.123419991,0,0.346043056,0.738166236,0.021483138,0,708.7545788,784.1025641,814.7252747,580.6227106,737.7655678,668.4615385,-0.408508,0.051392,0.865662,6.243134,0.590668,-5.001984,1,2,1,1,2,100,,,,
19:15:40,1.449839509,0.858120845,0.448057419,0,1.36553622,0.718136177,0.060231207,0,1.239623636,0.717664824,0.297564767,0,0.861625719,1.031549936,0.123419991,0,0.346043056,0.738166236,0.021483138,0,799.4139194,797.8021978,822.7838828,730.5128205,759.5238095,918.6813187,-0.408508,0.051392,0.865662,6.243134,0.590668,-5.001984,1,2,1,1,2,100,,,,
19:15:40,1.449839509,0.858120845,0.448057419,0,1.36553622,0.718136177,0.060231207,0,1.239623636,0.717664824,0.297564767,0,0.861625719,1.031549936,0.123419991,0,0.346043056,0.738166236,0.021483138,0,857.8388278,804.2490842,827.2161172,807.0695971,819.5604396,1107.252747,-0.408508,0.051392,0.865662,6.243134,0.590668,-5.001984,1,2,1,1,2,100,,,,
19:15:40,1.449839509,0.858120845,0.448057419,0,1.36553622,0.718136177,0.060231207,0,1.239623636,0.717664824,0.297564767,0,0.861625719,1.031549936,0.123419991,0,0.346043056,0.738166236,0.021483138,0,788.9377289,797.3992674,819.1575092,696.6666667,815.9340659,1036.336996,-0.408508,0.051392,0.865662,6.243134,0.590668,-5.001984,1,2,1,1,2,100,,,,
19:15:40,1.449839509,0.858120845,0.448057419,0,1.36553622,0.718136177,0.060231207,0,1.239623636,0.717664824,0.297564767,0,0.861625719,1.031549936,0.123419991,0,0.346043056,0.738166236,0.021483138,0,714.7985348,779.6703297,813.9194139,598.3516484,746.6300366,791.3553114,-0.408508,0.051392,0.865662,6.243134,0.590668,-5.001984,1,2,1,1,2,100,,,,
19:15:40,1.449839509,0.858120845,0.448057419,0,1.36553622,0.718136177,0.060231207,0,1.239623636,0.717664824,0.297564767,0,0.861625719,1.031549936,0.123419991,0,0.346043056,0.738166236,0.021483138,0,714.3956044,761.5384615,809.4871795,605.6043956,748.6446886,707.1428571,-0.408508,0.051392,0.865662,6.243134,0.590668,-5.001984,1,2,1,1,2,100,,,,
19:15:40,1.449839509,0.858120845,0.448057419,0,1.36553622,0.718136177,0.060231207,0,1.239623636,0.717664824,0.297564767,0,0.861625719,1.031549936,0.123419991,0,0.346043056,0.738166236,0.021483138,0,776.4468864,784.5054945,811.5018315,716.4102564,744.6153846,650.7326007,-0.408508,0.051392,0.865662,6.243134,0.590668,-5.001984,1,2,1,1,2,100,,,,
19:15:40,1.449839509,0.858120845,0.448057419,0,1.36553622,0.718136177,0.060231207,0,1.239623636,0.717664824,0.297564767,0,0.861625719,1.031549936,0.123419991,0,0.346043056,0.738166236,0.021483138,0,855.4212454,817.1428571,813.5164835,800.6227106,745.4212454,669.6703297,-0.408508,0.051392,0.865662,6.243134,0.590668,-5.001984,1,2,1,1,2,100,,,,
19:15:40,1.449839509,0.858120845,0.448057419,0,1.36553622,0.718136177,0.060231207,0,1.239623636,0.717664824,0.297564767,0,0.861625719,1.031549936,0.123419991,0,0.346043056,0.738166236,0.021483138,0,819.5604396,808.6813187,809.0842491,722.8571429,862.2710623,794.5787546,-0.42395,0.055969,0.872803,8.187103,0.635529,-11.536713,1,2,1,1,2,100,,,,
19:15:40,1.449839509,0.858120845,0.448057419,0,1.36553622,0.718136177,0.060231207,0,1.239623636,0.717664824,0.297564767,0,0.861625719,1.031549936,0.123419991,0,0.346043056,0.738166236,0.021483138,0,718.021978,790.1465201,818.3516484,607.2161172,898.5347985,710.7692308,-0.42395,0.055969,0.872803,8.187103,0.635529,-11.536713,1,2,1,1,2,100,,,,
19:15:40,1.449839509,0.858120845,0.448057419,0,1.36553622,0.718136177,0.060231207,0,1.239623636,0.717664824,0.297564767,0,0.861625719,1.031549936,0.123419991,0,0.346043056,0.738166236,0.021483138,0,694.2490842,789.3406593,813.9194139,610.03663,781.6849817,635.018315,-0.42395,0.055969,0.872803,8.187103,0.635529,-11.536713,1,2,1,1,2,100,,,,
19:15:40,1.449839509,0.858120845,0.448057419,0,1.36553622,0.718136177,0.060231207,0,1.239623636,0.717664824,0.297564767,0,0.861625719,1.031549936,0.123419991,0,0.346043056,0.738166236,0.021483138,0,770.8058608,806.6666667,809.4871795,728.4981685,786.5201465,722.4542125,-0.42395,0.055969,0.872803,8.187103,0.635529,-11.536713,1,2,1,1,2,100,,,,
19:15:40,1.449839509,0.858120845,0.448057419,0,1.36553622,0.718136177,0.060231207,0,1.239623636,0.717664824,0.297564767,0,0.861625719,1.031549936,0.123419991,0,0.346043056,0.738166236,0.021483138,0,853.4065934,819.96337,822.7838828,828.021978,836.8864469,828.8278388,-0.42395,0.055969,0.872803,8.187103,0.635529,-11.536713,1,2,1,1,2,100,,,,
19:15:40,1.449839509,0.858120845,0.448057419,0,1.36553622,0.718136177,0.060231207,0,1.239623636,0.717664824,0.297564767,0,0.861625719,1.031549936,0.123419991,0,0.346043056,0.738166236,0.021483138,0,820.3663004,813.9194139,822.3809524,773.6263736,832.4542125,1007.326007,-0.42395,0.055969,0.872803,8.187103,0.635529,-11.536713,1,2,1,1,2,100,,,,
19:15:40,1.449839509,0.858120845,0.448057419,0,1.36553622,0.718136177,0.060231207,0,1.239623636,0.717664824,0.297564767,0,0.861625719,1.031549936,0.123419991,0,0.346043056,0.738166236,0.021483138,0,730.1098901,789.3406593,810.2930403,643.0769231,802.6373626,1000.879121,-0.42395,0.055969,0.872803,8.187103,0.635529,-11.536713,1,2,1,1,2,100,,,,
19:15:40,1.449839509,0.858120845,0.448057419,0,1.36553622,0.718136177,0.060231207,0,1.239623636,0.717664824,0.297564767,0,0.861625719,1.031549936,0.123419991,0,0.346043056,0.738166236,0.021483138,0,702.3076923,769.1941392,798.6080586,610.03663,836.4835165,870.7326007,-0.42395,0.055969,0.872803,8.187103,0.635529,-11.536713,1,2,1,1,2,100,,,,
19:15:40,1.449839509,0.858120845,0.448057419,0,1.36553622,0.718136177,0.060231207,0,1.239623636,0.717664824,0.297564767,0,0.861625719,1.031549936,0.123419991,0,0.346043056,0.738166236,0.021483138,0,743.003663,767.1794872,800.2197802,714.3956044,929.5604396,840.1098901,-0.42395,0.055969,0.872803,8.187103,0.635529,-11.536713,1,2,1,1,2,100,,,,
19:15:40,1.449839509,0.858120845,0.448057419,0,1.36553622,0.718136177,0.060231207,0,1.239623636,0.717664824,0.297564767,0,0.861625719,1.031549936,0.123419991,0,0.346043056,0.738166236,0.021483138,0,807.8754579,788.9377289,811.5018315,834.8717949,850.1831502,752.6739927,-0.42395,0.055969,0.872803,8.187103,0.635529,-11.536713,1,2,1,1,2,100,,,,
19:15:40,1.449839509,0.858120845,0.448057419,0,1.36553622,0.718136177,0.060231207,0,1.239623636,0.717664824,0.297564767,0,0.861625719,1.031549936,0.123419991,0,0.346043056,0.738166236,0.021483138,0,821.1721612,799.010989,817.5457875,798.6080586,851.3919414,784.5054945,-0.42395,0.055969,0.872803,8.187103,0.635529,-11.536713,1,2,1,1,2,100,,,,
19:15:40,1.449839509,0.858120845,0.448057419,0,1.36553622,0.718136177,0.060231207,0,1.239623636,0.717664824,0.297564767,0,0.861625719,1.031549936,0.123419991,0,0.346043056,0.738166236,0.021483138,0,733.7362637,784.1025641,811.5018315,667.2527473,830.8424908,799.8168498,-0.42395,0.055969,0.872803,8.187103,0.635529,-11.536713,1,2,1,1,2,100,,,,
19:15:40,1.449839509,0.858120845,0.448057419,0,1.36553622,0.718136177,0.060231207,0,1.239623636,0.717664824,0.297564767,0,0.861625719,1.031549936,0.123419991,0,0.346043056,0.738166236,0.021483138,0,680.1465201,772.4175824,803.8461538,628.1684982,790.5494505,892.0879121,-0.314697,0.289734,0.879089,13.772278,4.336548,-37.197113,1,2,1,1,2,100,,,,
19:15:40,1.449839509,0.858120845,0.448057419,0,1.36553622,0.718136177,0.060231207,0,1.239623636,0.717664824,0.297564767,0,0.861625719,1.031549936,0.123419991,0,0.346043056,0.738166236,0.021483138,0,736.5567766,773.2234432,800.6227106,711.1721612,803.8461538,746.2271062,-0.314697,0.289734,0.879089,13.772278,4.336548,-37.197113,1,2,1,1,2,100,,,,
19:15:40,1.449839509,0.858120845,0.448057419,0,1.36553622,0.718136177,0.060231207,0,1.239623636,0.717664824,0.297564767,0,0.861625719,1.031549936,0.123419991,0,0.346043056,0.738166236,0.021483138,0,819.5604396,801.4285714,817.1428571,840.9157509,814.3223443,738.1684982,-0.314697,0.289734,0.879089,13.772278,4.336548,-37.197113,1,2,1,1,2,100,,,,
19:15:40,1.449839509,0.858120845,0.448057419,0,1.36553622,0.718136177,0.060231207,0,1.239623636,0.717664824,0.297564767,0,0.861625719,1.031549936,0.123419991,0,0.346043056,0.738166236,0.021483138,0,811.5018315,805.4578755,818.3516484,823.1868132,770,786.1172161,-0.314697,0.289734,0.879089,13.772278,4.336548,-37.197113,1,2,1,1,2,100,,,,
19:15:40,1.449839509,0.858120845,0.448057419,0,1.36553622,0.718136177,0.060231207,0,1.239623636,0.717664824,0.297564767,0,0.861625719,1.031549936,0.123419991,0,0.346043056,0.738166236,0.021483138,0,734.1391941,778.8644689,800.2197802,694.6520147,741.3919414,743.4065934,-0.314697,0.289734,0.879089,13.772278,4.336548,-37.197113,1,2,1,1,2,100,,,,
19:15:40,1.449839509,0.858120845,0.448057419,0,1.36553622,0.718136177,0.060231207,0,1.239623636,0.717664824,0.297564767,0,0.861625719,1.031549936,0.123419991,0,0.346043056,0.738166236,0.021483138,0,695.8608059,770.8058608,798.2051282,648.7179487,710.7692308,726.8864469,-0.314697,0.289734,0.879089,13.772278,4.336548,-37.197113,1,2,1,1,2,100,,,,
19:15:40,1.449839509,0.858120845,0.448057419,0,1.36553622,0.718136177,0.060231207,0,1.239623636,0.717664824,0.297564767,0,0.861625719,1.031549936,0.123419991,0,0.346043056,0.738166236,0.021483138,0,720.4395604,785.7142857,804.2490842,725.6776557,724.8717949,873.5531136,-0.314697,0.289734,0.879089,13.772278,4.336548,-37.197113,1,2,1,1,2,100,,,,
19:15:40,1.449839509,0.858120845,0.448057419,0,1.36553622,0.718136177,0.060231207,0,1.239623636,0.717664824,0.297564767,0,0.861625719,1.031549936,0.123419991,0,0.346043056,0.738166236,0.021483138,0,807.0695971,811.5018315,813.9194139,859.047619,754.6886447,1073.406593,-0.314697,0.289734,0.879089,13.772278,4.336548,-37.197113,1,2,1,1,2,100,,,,
19:15:40,1.449839509,0.858120845,0.448057419,0,1.36553622,0.718136177,0.060231207,0,1.239623636,0.717664824,0.297564767,0,0.861625719,1.031549936,0.123419991,0,0.346043056,0.738166236,0.021483138,0,840.5128205,789.7435897,815.1282051,858.6446886,826.007326,952.1245421,-0.314697,0.289734,0.879089,13.772278,4.336548,-37.197113,1,2,1,1,2,100,,,,
19:15:40,1.449839509,0.858120845,0.448057419,0,1.36553622,0.718136177,0.060231207,0,1.239623636,0.717664824,0.297564767,0,0.861625719,1.031549936,0.123419991,0,0.346043056,0.738166236,0.021483138,0,767.1794872,767.985348,805.8608059,725.2747253,855.018315,688.2051282,-0.314697,0.289734,0.879089,13.772278,4.336548,-37.197113,1,2,1,1,2,100,,,,
19:15:40,1.449839509,0.858120845,0.448057419,0,1.36553622,0.718136177,0.060231207,0,1.239623636,0.717664824,0.297564767,0,0.861625719,1.031549936,0.123419991,0,0.346043056,0.738166236,0.021483138,0,686.996337,771.2087912,806.2637363,648.3150183,827.2161172,660,-0.314697,0.289734,0.879089,13.772278,4.336548,-37.197113,1,2,1,1,2,100,,,,
19:15:40,1.449839509,0.858120845,0.448057419,0,1.36553622,0.718136177,0.060231207,0,1.239623636,0.717664824,0.297564767,0,0.861625719,1.031549936,0.123419991,0,0.346043056,0.738166236,0.021483138,0,718.8278388,774.029304,811.5018315,734.1391941,825.6043956,716.4102564,-0.314697,0.289734,0.879089,13.772278,4.336548,-37.197113,1,2,1,1,2,100,,,,
19:15:40,1.449839509,0.858120845,0.448057419,0,1.36553622,0.718136177,0.060231207,0,1.239623636,0.717664824,0.297564767,0,0.861625719,1.031549936,0.123419991,0,0.346043056,0.738166236,0.021483138,0,836.4835165,809.4871795,810.2930403,881.2087912,818.7545788,757.5091575,-0.314697,0.289734,0.879089,13.772278,4.336548,-37.197113,1,2,1,1,2,100,,,,
19:15:40,1.449839509,0.858120845,0.448057419,0,1.36553622,0.718136177,0.060231207,0,1.239623636,0.717664824,0.297564767,0,0.861625719,1.031549936,0.123419991,0,0.346043056,0.738166236,0.021483138,0,851.3919414,821.1721612,807.0695971,872.3443223,822.3809524,681.3553114,-0.314697,0.289734,0.879089,13.772278,4.336548,-37.197113,1,2,1,1,2,100,,,,
19:15:40,1.449839509,0.858120845,0.448057419,0,1.36553622,0.718136177,0.060231207,0,1.239623636,0.717664824,0.297564767,0,0.861625719,1.031549936,0.123419991,0,0.346043056,0.738166236,0.021483138,0,755.8974359,803.8461538,800.2197802,725.6776557,874.3589744,785.7142857,-0.314697,0.289734,0.879089,13.772278,4.336548,-37.197113,1,2,1,1,2,100,,,,
19:15:40,1.449839509,0.858120845,0.448057419,0,1.36553622,0.718136177,0.060231207,0,1.239623636,0.717664824,0.297564767,0,0.861625719,1.031549936,0.123419991,0,0.346043056,0.738166236,0.021483138,0,678.5347985,794.1758242,791.3553114,626.1538462,785.3113553,890.0732601,-0.314697,0.289734,0.879089,13.772278,4.336548,-37.197113,1,2,1,1,2,100,,,,
19:15:40,1.449839509,0.858120845,0.448057419,0,1.36553622,0.718136177,0.060231207,0,1.239623636,0.717664824,0.297564767,0,0.861625719,1.031549936,0.123419991,0,0.346043056,0.738166236,0.021483138,0,684.981685,796.5934066,786.9230769,658.7912088,677.3260073,646.3003663,-0.314697,0.289734,0.879089,13.772278,4.336548,-37.197113,1,2,1,1,2,100,,,,
19:15:40,1.449839509,0.858120845,0.448057419,0,1.36553622,0.718136177,0.060231207,0,1.239623636,0.717664824,0.297564767,0,0.861625719,1.031549936,0.123419991,0,0.346043056,0.738166236,0.021483138,0,767.985348,823.5897436,795.3846154,792.1611722,793.3699634,752.2710623,-0.314697,0.289734,0.879089,13.772278,4.336548,-37.197113,1,2,1,1,2,100,,,,
19:15:40,1.449839509,0.858120845,0.448057419,0,1.36553622,0.718136177,0.060231207,0,1.239623636,0.717664824,0.297564767,0,0.861625719,1.031549936,0.123419991,0,0.346043056,0.738166236,0.021483138,0,830.4395604,840.5128205,796.5934066,814.7252747,857.4358974,1056.483516,-0.314697,0.289734,0.879089,13.772278,4.336548,-37.197113,1,2,1,1,2,100,,,,
19:15:40,1.449839509,0.858120845,0.448057419,0,1.36553622,0.718136177,0.060231207,0,1.239623636,0.717664824,0.297564767,0,0.861625719,1.031549936,0.123419991,0,0.346043056,0.738166236,0.021483138,0,776.8498168,819.5604396,781.2820513,691.025641,854.2124542,968.2417582,-0.314697,0.289734,0.879089,13.772278,4.336548,-37.197113,1,2,1,1,2,100,,,,
19:15:40,1.449839509,0.858120845,0.448057419,0,1.36553622,0.718136177,0.060231207,0,1.239623636,0.717664824,0.297564767,0,0.861625719,1.031549936,0.123419991,0,0.346043056,0.738166236,0.021483138,0,694.6520147,798.6080586,767.1794872,570.952381,839.7069597,695.4578755,-0.314697,0.289734,0.879089,13.772278,4.336548,-37.197113,1,2,1,1,2,100,,,,
19:15:40,1.449839509,0.858120845,0.448057419,0,1.36553622,0.718136177,0.060231207,0,1.239623636,0.717664824,0.297564767,0,0.861625719,1.031549936,0.123419991,0,0.346043056,0.738166236,0.021483138,0,710.3663004,806.2637363,767.1794872,587.4725275,836.4835165,610.8424908,-0.314697,0.289734,0.879089,13.772278,4.336548,-37.197113,1,2,1,1,2,100,,,,
19:15:40,1.449839509,0.858120845,0.448057419,0,1.36553622,0.718136177,0.060231207,0,1.239623636,0.717664824,0.297564767,0,0.861625719,1.031549936,0.123419991,0,0.346043056,0.738166236,0.021483138,0,784.1025641,831.6483516,776.8498168,732.9304029,845.3479853,720.4395604,-0.314697,0.289734,0.879089,13.772278,4.336548,-37.197113,1,2,1,1,2,100,,,,
19:15:40,1.449839509,0.482738509,0.448057419,0,1.36553622,0.154671582,0.060231207,0,1.239623636,0.121032644,0.297564767,0,0.861625719,0.874656542,0.123419991,0,0.346043056,0.574632345,0.021483138,0,788.9377289,846.959707,782.4908425,807.0695971,817.9487179,790.952381,-0.314697,0.289734,0.879089,13.772278,4.336548,-37.197113,1,2,1,1,2,100,,,,
19:15:40,1.449839509,0.482738509,0.448057419,0,1.36553622,0.154671582,0.060231207,0,1.239623636,0.121032644,0.297564767,0,0.861625719,0.874656542,0.123419991,0,0.346043056,0.574632345,0.021483138,0,671.2820513,836.8864469,774.029304,689.8168498,849.7802198,786.5201465,-0.287476,0.399963,0.919922,47.515106,2.018738,-126.24588,1,2,1,1,2,100,,,,
19:15:40,1.449839509,0.482738509,0.448057419,0,1.36553622,0.154671582,0.060231207,0,1.239623636,0.121032644,0.297564767,0,0.861625719,0.874656542,0.123419991,0,0.346043056,0.574632345,0.021483138,0,582.6373626,824.3956044,762.7472527,572.967033,846.959707,648.7179487,-0.287476,0.399963,0.919922,47.515106,2.018738,-126.24588,1,2,1,1,2,100,,,,
19:15:40,1.449839509,0.482738509,0.448057419,0,1.36553622,0.154671582,0.060231207,0,1.239623636,0.121032644,0.297564767,0,0.861625719,0.874656542,0.123419991,0,0.346043056,0.574632345,0.021483138,0,604.7985348,823.1868132,762.7472527,592.3076923,776.8498168,630.989011,-0.287476,0.399963,0.919922,47.515106,2.018738,-126.24588,1,2,1,1,2,100,,,,
19:15:40,1.449839509,0.482738509,0.448057419,0,1.36553622,0.154671582,0.060231207,0,1.239623636,0.121032644,0.297564767,0,0.861625719,0.874656542,0.123419991,0,0.346043056,0.574632345,0.021483138,0,682.1611722,837.6923077,767.5824176,722.8571429,731.7216117,701.0989011,-0.287476,0.399963,0.919922,47.515106,2.018738,-126.24588,1,2,1,1,2,100,,,,
19:15:40,1.449839509,0.482738509,0.448057419,0,1.36553622,0.154671582,0.060231207,0,1.239623636,0.121032644,0.297564767,0,0.861625719,0.874656542,0.123419991,0,0.346043056,0.574632345,0.021483138,0,765.5677656,858.6446886,774.029304,797.3992674,771.6117216,757.1062271,-0.287476,0.399963,0.919922,47.515106,2.018738,-126.24588,1,2,1,1,2,100,,,,
19:15:40,1.449839509,0.482738509,0.448057419,0,1.36553622,0.154671582,0.060231207,0,1.239623636,0.121032644,0.297564767,0,0.861625719,0.874656542,0.123419991,0,0.346043056,0.574632345,0.021483138,0,753.4798535,854.2124542,770,707.1428571,786.5201465,805.4578755,-0.287476,0.399963,0.919922,47.515106,2.018738,-126.24588,1,2,1,1,2,100,,,,
19:15:40,1.449839509,0.482738509,0.448057419,0,1.36553622,0.154671582,0.060231207,0,1.239623636,0.121032644,0.297564767,0,0.861625719,0.874656542,0.123419991,0,0.346043056,0.574632345,0.021483138,0,657.985348,829.2307692,751.8681319,591.5018315,770,931.978022,-0.287476,0.399963,0.919922,47.515106,2.018738,-126.24588,1,2,1,1,2,100,,,,
19:15:40,1.449839509,0.482738509,0.448057419,0,1.36553622,0.154671582,0.060231207,0,1.239623636,0.121032644,0.297564767,0,0.861625719,0.874656542,0.123419991,0,0.346043056,0.574632345,0.021483138,0,612.8571429,808.2783883,742.6007326,573.7728938,775.6410256,1018.608059,-0.287476,0.399963,0.919922,47.515106,2.018738,-126.24588,1,2,1,1,2,100,,,,
19:15:40,1.449839509,0.482738509,0.448057419,0,1.36553622,0.154671582,0.060231207,0,1.239623636,0.121032644,0.297564767,0,0.861625719,0.874656542,0.123419991,0,0.346043056,0.574632345,0.021483138,0,693.8461538,821.5750916,749.047619,672.0879121,742.1978022,921.9047619,-0.287476,0.399963,0.919922,47.515106,2.018738,-126.24588,1,2,1,1,2,100,,,,
19:15:40,1.449839509,0.482738509,0.448057419,0,1.36553622,0.154671582,0.060231207,0,1.239623636,0.121032644,0.297564767,0,0.861625719,0.874656542,0.123419991,0,0.346043056,0.574632345,0.021483138,0,794.5787546,840.5128205,763.5531136,778.8644689,736.1538462,672.0879121,-0.287476,0.399963,0.919922,47.515106,2.018738,-126.24588,1,2,1,1,2,100,,,,
19:15:40,1.449839509,0.482738509,0.448057419,0,1.36553622,0.154671582,0.060231207,0,1.239623636,0.121032644,0.297564767,0,0.861625719,0.874656542,0.123419991,0,0.346043056,0.574632345,0.021483138,0,785.7142857,853.4065934,761.1355311,709.96337,691.8315018,574.1758242,-0.287476,0.399963,0.919922,47.515106,2.018738,-126.24588,1,2,1,1,2,100,,,,
19:15:40,1.449839509,0.482738509,0.448057419,0,1.36553622,0.154671582,0.060231207,0,1.239623636,0.121032644,0.297564767,0,0.861625719,0.874656542,0.123419991,0,0.346043056,0.574632345,0.021483138,0,696.6666667,847.7655678,748.6446886,584.2490842,693.8461538,606.007326,-0.287476,0.399963,0.919922,47.515106,2.018738,-126.24588,1,2,1,1,2,100,,,,
19:15:40,1.449839509,0.482738509,0.448057419,0,1.36553622,0.154671582,0.060231207,0,1.239623636,0.121032644,0.297564767,0,0.861625719,0.874656542,0.123419991,0,0.346043056,0.574632345,0.021483138,0,663.2234432,840.1098901,744.6153846,567.3260073,826.4102564,678.1318681,-0.271606,0.052063,1.049255,74.125061,19.282684,-189.701538,1,2,1,1,2,100,,,,
19:15:40,1.449839509,0.482738509,0.448057419,0,1.36553622,0.154671582,0.060231207,0,1.239623636,0.121032644,0.297564767,0,0.861625719,0.874656542,0.123419991,0,0.346043056,0.574632345,0.021483138,0,732.9304029,855.018315,748.2417582,684.5787546,860.2564103,720.4395604,-0.271606,0.052063,1.049255,74.125061,19.282684,-189.701538,1,2,1,1,2,100,,,,
19:15:40,1.449839509,0.482738509,0.448057419,0,1.36553622,0.154671582,0.060231207,0,1.239623636,0.121032644,0.297564767,0,0.861625719,0.874656542,0.123419991,0,0.346043056,0.574632345,0.021483138,0,829.2307692,876.3736264,761.5384615,822.3809524,822.7838828,776.043956,-0.271606,0.052063,1.049255,74.125061,19.282684,-189.701538,1,2,1,1,2,100,,,,
19:15:40,1.449839509,0.482738509,0.448057419,0,1.36553622,0.154671582,0.060231207,0,1.239623636,0.121032644,0.297564767,0,0.861625719,0.874656542,0.123419991,0,0.346043056,0.574632345,0.021483138,0,817.1428571,876.3736264,762.7472527,759.9267399,874.7619048,851.3919414,-0.271606,0.052063,1.049255,74.125061,19.282684,-189.701538,1,2,1,1,2,100,,,,
19:15:40,1.449839509,0.482738509,0.448057419,0,1.36553622,0.154671582,0.060231207,0,1.239623636,0.121032644,0.297564767,0,0.861625719,0.874656542,0.123419991,0,0.346043056,0.574632345,0.021483138,0,727.6923077,850.989011,743.8095238,625.3479853,844.5421245,749.047619,-0.271606,0.052063,1.049255,74.125061,19.282684,-189.701538,1,2,1,1,2,100,,,,
19:15:40,1.449839509,0.482738509,0.448057419,0,1.36553622,0.154671582,0.060231207,0,1.239623636,0.121032644,0.297564767,0,0.861625719,0.874656542,0.123419991,0,0.346043056,0.574632345,0.021483138,0,693.8461538,838.0952381,736.1538462,582.6373626,732.9304029,746.6300366,-0.271606,0.052063,1.049255,74.125061,19.282684,-189.701538,1,2,1,1,2,100,,,,
19:15:40,1.449839509,0.482738509,0.448057419,0,1.36553622,0.154671582,0.060231207,0,1.239623636,0.121032644,0.297564767,0,0.861625719,0.874656542,0.123419991,0,0.346043056,0.574632345,0.021483138,0,753.8827839,859.047619,746.2271062,677.3260073,780.8791209,991.6117216,-0.271606,0.052063,1.049255,74.125061,19.282684,-189.701538,1,2,1,1,2,100,,,,
19:15:40,1.449839509,0.482738509,0.448057419,0,1.36553622,0.154671582,0.060231207,0,1.239623636,0.121032644,0.297564767,0,0.861625719,0.874656542,0.123419991,0,0.346043056,0.574632345,0.021483138,0,848.1684982,875.970696,754.6886447,845.3479853,848.974359,897.3260073,-0.271606,0.052063,1.049255,74.125061,19.282684,-189.701538,1,2,1,1,2,100,,,,
19:15:40,1.449839509,0.482738509,0.448057419,0,1.36553622,0.154671582,0.060231207,0,1.239623636,0.121032644,0.297564767,0,0.861625719,0.874656542,0.123419991,0,0.346043056,0.574632345,0.021483138,0,853.8095238,857.8388278,755.4945055,828.4249084,822.7838828,801.4285714,-0.271606,0.052063,1.049255,74.125061,19.282684,-189.701538,1,2,1,1,2,100,,,,
19:15:40,1.449839509,0.482738509,0.448057419,0,1.36553622,0.154671582,0.060231207,0,1.239623636,0.121032644,0.297564767,0,0.861625719,0.874656542,0.123419991,0,0.346043056,0.574632345,0.021483138,0,793.3699634,836.4835165,745.018315,690.2197802,744.6153846,836.4835165,-0.271606,0.052063,1.049255,74.125061,19.282684,-189.701538,1,2,1,1,2,100,,,,
19:15:40,1.449839509,0.482738509,0.448057419,0,1.36553622,0.154671582,0.060231207,0,1.239623636,0.121032644,0.297564767,0,0.861625719,0.874656542,0.123419991,0,0.346043056,0.574632345,0.021483138,0,755.0915751,837.6923077,748.6446886,631.7948718,746.2271062,681.3553114,-0.271606,0.052063,1.049255,74.125061,19.282684,-189.701538,1,2,1,1,2,100,,,,
19:15:40,1.449839509,0.482738509,0.448057419,0,1.36553622,0.154671582,0.060231207,0,1.239623636,0.121032644,0.297564767,0,0.861625719,0.874656542,0.123419991,0,0.346043056,0.574632345,0.021483138,0,795.7875458,840.1098901,758.3150183,717.2161172,753.4798535,629.7802198,-0.271606,0.052063,1.049255,74.125061,19.282684,-189.701538,1,2,1,1,2,100,,,,
19:15:40,1.449839509,0.482738509,0.448057419,0,1.36553622,0.154671582,0.060231207,0,1.239623636,0.121032644,0.297564767,0,0.861625719,0.874656542,0.123419991,0,0.346043056,0.574632345,0.021483138,0,899.7435897,857.032967,754.2857143,892.8937729,771.2087912,733.3333333,-0.342773,-0.241211,0.999939,57.444305,25.376282,-176.460114,1,2,1,1,2,100,,,,
19:15:40,1.449839509,0.482738509,0.448057419,0,1.36553622,0.154671582,0.060231207,0,1.239623636,0.121032644,0.297564767,0,0.861625719,0.874656542,0.123419991,0,0.346043056,0.574632345,0.021483138,0,937.2161172,867.1062271,759.9267399,919.4871795,789.3406593,736.959707,-0.342773,-0.241211,0.999939,57.444305,25.376282,-176.460114,1,2,1,1,2,100,,,,
19:15:40,1.449839509,0.482738509,0.448057419,0,1.36553622,0.154671582,0.060231207,0,1.239623636,0.121032644,0.297564767,0,0.861625719,0.874656542,0.123419991,0,0.346043056,0.574632345,0.021483138,0,876.3736264,849.3772894,760.7326007,789.3406593,780.4761905,734.1391941,-0.342773,-0.241211,0.999939,57.444305,25.376282,-176.460114,1,2,1,1,2,100,,,,
19:15:40,1.449839509,0.482738509,0.448057419,0,1.36553622,0.154671582,0.060231207,0,1.239623636,0.121032644,0.297564767,0,0.861625719,0.874656542,0.123419991,0,0.346043056,0.574632345,0.021483138,0,817.1428571,836.8864469,751.8681319,709.1575092,852.1978022,803.8461538,-0.342773,-0.241211,0.999939,57.444305,25.376282,-176.460114,1,2,1,1,2,100,,,,
19:15:40,1.449839509,0.482738509,0.448057419,0,1.36553622,0.154671582,0.060231207,0,1.239623636,0.121032644,0.297564767,0,0.861625719,0.874656542,0.123419991,0,0.346043056,0.574632345,0.021483138,0,854.6153846,836.8864469,753.8827839,781.2820513,838.4981685,788.5347985,-0.342773,-0.241211,0.999939,57.444305,25.376282,-176.460114,1,2,1,1,2,100,,,,
19:15:40,1.449839509,0.482738509,0.448057419,0,1.36553622,0.154671582,0.060231207,0,1.239623636,0.121032644,0.297564767,0,0.861625719,0.874656542,0.123419991,0,0.346043056,0.574632345,0.021483138,0,963.4065934,856.6300366,769.5970696,984.7619048,806.6666667,929.96337,-0.342773,-0.241211,0.999939,57.444305,25.376282,-176.460114,1,2,1,1,2,100,,,,
19:15:40,1.449839509,0.482738509,0.448057419,0,1.36553622,0.154671582,0.060231207,0,1.239623636,0.121032644,0.297564767,0,0.861625719,0.874656542,0.123419991,0,0.346043056,0.574632345,0.021483138,0,997.2527473,863.4798535,778.0586081,1045.201465,844.1391941,1109.67033,-0.342773,-0.241211,0.999939,57.444305,25.376282,-176.460114,1,2,1,1,2,100,,,,
19:15:40,1.449839509,0.482738509,0.448057419,0,1.36553622,0.154671582,0.060231207,0,1.239623636,0.121032644,0.297564767,0,0.861625719,0.874656542,0.123419991,0,0.346043056,0.574632345,0.021483138,0,936.4102564,850.1831502,772.014652,911.4285714,829.6336996,1074.212454,-0.342773,-0.241211,0.999939,57.444305,25.376282,-176.460114,1,2,1,1,2,100,,,,
19:15:40,1.449839509,0.482738509,0.448057419,0,1.36553622,0.154671582,0.060231207,0,1.239623636,0.121032644,0.297564767,0,0.861625719,0.874656542,0.123419991,0,0.346043056,0.574632345,0.021483138,0,872.3443223,830.4395604,761.9413919,798.2051282,807.0695971,975.8974359,-0.342773,-0.241211,0.999939,57.444305,25.376282,-176.460114,1,2,1,1,2,100,,,,
19:15:40,1.449839509,0.482738509,0.448057419,0,1.36553622,0.154671582,0.060231207,0,1.239623636,0.121032644,0.297564767,0,0.861625719,0.874656542,0.123419991,0,0.346043056,0.574632345,0.021483138,0,889.6703297,833.6630037,763.5531136,829.6336996,828.021978,797.3992674,-0.342773,-0.241211,0.999939,57.444305,25.376282,-176.460114,1,2,1,1,2,100,,,,
19:15:40,1.449839509,0.482738509,0.448057419,0,1.36553622,0.154671582,0.060231207,0,1.239623636,0.121032644,0.297564767,0,0.861625719,0.874656542,0.123419991,0,0.346043056,0.574632345,0.021483138,0,984.3589744,856.2271062,767.5824176,1000.879121,882.014652,801.4285714,-0.342773,-0.241211,0.999939,57.444305,25.376282,-176.460114,1,2,1,1,2,100,,,,
19:15:40,1.449839509,0.482738509,0.448057419,0,1.36553622,0.154671582,0.060231207,0,1.239623636,0.121032644,0.297564767,0,0.861625719,0.874656542,0.123419991,0,0.346043056,0.574632345,0.021483138,0,1020.622711,857.4358974,774.4322344,1066.153846,877.5824176,892.4908425,-0.342773,-0.241211,0.999939,57.444305,25.376282,-176.460114,1,2,1,1,2,100,,,,
19:15:40,1.449839509,0.482738509,0.448057419,0,1.36553622,0.154671582,0.060231207,0,1.239623636,0.121032644,0.297564767,0,0.861625719,0.874656542,0.123419991,0,0.346043056,0.574632345,0.021483138,0,956.1538462,839.3040293,775.2380952,933.5897436,754.2857143,881.6117216,-0.42041,-0.367249,0.849121,39.432678,18.026581,-111.479187,1,2,1,1,2,100,,,,
19:15:40,1.449839509,0.482738509,0.448057419,0,1.36553622,0.154671582,0.060231207,0,1.239623636,0.121032644,0.297564767,0,0.861625719,0.874656542,0.123419991,0,0.346043056,0.574632345,0.021483138,0,873.956044,817.9487179,772.8205128,799.4139194,695.8608059,637.032967,-0.42041,-0.367249,0.849121,39.432678,18.026581,-111.479187,1,2,1,1,2,100,,,,
19:15:40,1.449839509,0.482738509,0.448057419,0,1.36553622,0.154671582,0.060231207,0,1.239623636,0.121032644,0.297564767,0,0.861625719,0.874656542,0.123419991,0,0.346043056,0.574632345,0.021483138,0,864.2857143,811.5018315,777.6556777,799.010989,750.6593407,629.7802198,-0.42041,-0.367249,0.849121,39.432678,18.026581,-111.479187,1,2,1,1,2,100,,,,
19:15:40,1.449839509,0.482738509,0.448057419,0,1.36553622,0.154671582,0.060231207,0,1.239623636,0.121032644,0.297564767,0,0.861625719,0.874656542,0.123419991,0,0.346043056,0.574632345,0.021483138,0,949.7069597,830.4395604,782.0879121,954.1391941,822.3809524,813.9194139,-0.42041,-0.367249,0.849121,39.432678,18.026581,-111.479187,1,2,1,1,2,100,,,,
19:15:40,1.449839509,0.482738509,0.448057419,0,1.36553622,0.154671582,0.060231207,0,1.239623636,0.121032644,0.297564767,0,0.861625719,0.874656542,0.123419991,0,0.346043056,0.574632345,0.021483138,0,998.4615385,838.0952381,784.9084249,1058.095238,853.4065934,911.4285714,-0.42041,-0.367249,0.849121,39.432678,18.026581,-111.479187,1,2,1,1,2,100,,,,
19:15:40,1.449839509,0.482738509,0.448057419,0,1.36553622,0.154671582,0.060231207,0,1.239623636,0.121032644,0.297564767,0,0.861625719,0.874656542,0.123419991,0,0.346043056,0.574632345,0.021483138,0,937.2161172,816.3369963,784.9084249,930.7692308,794.981685,1017.802198,-0.42041,-0.367249,0.849121,39.432678,18.026581,-111.479187,1,2,1,1,2,100,,,,
19:15:40,1.449839509,0.482738509,0.448057419,0,1.36553622,0.154671582,0.060231207,0,1.239623636,0.121032644,0.297564767,0,0.861625719,0.874656542,0.123419991,0,0.346043056,0.574632345,0.021483138,0,859.4505495,795.3846154,784.9084249,778.4615385,780.4761905,1020.21978,-0.42041,-0.367249,0.849121,39.432678,18.026581,-111.479187,1,2,1,1,2,100,,,,
19:15:40,1.449839509,0.482738509,0.448057419,0,1.36553622,0.154671582,0.060231207,0,1.239623636,0.121032644,0.297564767,0,0.861625719,0.874656542,0.123419991,0,0.346043056,0.574632345,0.021483138,0,863.8827839,792.5641026,788.5347985,777.2527473,813.9194139,856.6300366,-0.42041,-0.367249,0.849121,39.432678,18.026581,-111.479187,1,2,1,1,2,100,,,,
19:15:40,1.449839509,0.482738509,0.448057419,0,1.36553622,0.154671582,0.060231207,0,1.239623636,0.121032644,0.297564767,0,0.861625719,0.874656542,0.123419991,0,0.346043056,0.574632345,0.021483138,0,933.992674,804.2490842,797.8021978,943.6630037,820.3663004,788.9377289,-0.42041,-0.367249,0.849121,39.432678,18.026581,-111.479187,1,2,1,1,2,100,,,,
19:15:40,1.449839509,0.482738509,0.448057419,0,1.36553622,0.154671582,0.060231207,0,1.239623636,0.121032644,0.297564767,0,0.861625719,0.874656542,0.123419991,0,0.346043056,0.574632345,0.021483138,0,986.3736264,807.0695971,806.2637363,1076.630037,905.7875458,935.6043956,-0.42041,-0.367249,0.849121,39.432678,18.026581,-111.479187,1,2,1,1,2,100,,,,
19:15:40,1.449839509,0.482738509,0.448057419,0,1.36553622,0.154671582,0.060231207,0,1.239623636,0.121032644,0.297564767,0,0.861625719,0.874656542,0.123419991,0,0.346043056,0.574632345,0.021483138,0,936.007326,796.1904762,799.4139194,955.7509158,886.8498168,874.7619048,-0.42041,-0.367249,0.849121,39.432678,18.026581,-111.479187,1,2,1,1,2,100,,,,
19:15:40,1.449839509,0.482738509,0.448057419,0,1.36553622,0.154671582,0.060231207,0,1.239623636,0.121032644,0.297564767,0,0.861625719,0.874656542,0.123419991,0,0.346043056,0.574632345,0.021483138,0,846.1538462,782.8937729,790.5494505,779.6703297,818.3516484,763.956044,-0.42041,-0.367249,0.849121,39.432678,18.026581,-111.479187,1,2,1,1,2,100,,,,
19:15:40,1.449839509,0.482738509,0.448057419,0,1.36553622,0.154671582,0.060231207,0,1.239623636,0.121032644,0.297564767,0,0.861625719,0.874656542,0.123419991,0,0.346043056,0.574632345,0.021483138,0,821.5750916,775.6410256,791.3553114,754.2857143,814.7252747,760.3296703,-0.42041,-0.367249,0.849121,39.432678,18.026581,-111.479187,1,2,1,1,2,100,,,,
19:15:40,1.449839509,0.482738509,0.448057419,0,1.36553622,0.154671582,0.060231207,0,1.239623636,0.121032644,0.297564767,0,0.861625719,0.874656542,0.123419991,0,0.346043056,0.574632345,0.021483138,0,882.8205128,795.7875458,795.7875458,900.952381,813.5164835,697.0695971,-0.42041,-0.367249,0.849121,39.432678,18.026581,-111.479187,1,2,1,1,2,100,,,,
19:15:40,1.449839509,0.482738509,0.448057419,0,1.36553622,0.154671582,0.060231207,0,1.239623636,0.121032644,0.297564767,0,0.861625719,0.874656542,0.123419991,0,0.346043056,0.574632345,0.021483138,0,949.7069597,808.2783883,803.4432234,1053.260073,771.6117216,802.2344322,-0.42041,-0.367249,0.849121,39.432678,18.026581,-111.479187,1,2,1,1,2,100,,,,
19:15:40,,,,,,,,,,,,,,,,,,,,,,,,,,,,,,,,,,,,,,,/muse/elements/blink,,,
19:15:40,1.449839509,0.482738509,0.448057419,0,1.36553622,0.154671582,0.060231207,0,1.239623636,0.121032644,0.297564767,0,0.861625719,0.874656542,0.123419991,0,0.346043056,0.574632345,0.021483138,0,917.8754579,792.967033,801.025641,971.4652015,791.7582418,983.956044,-0.42041,-0.367249,0.849121,39.432678,18.026581,-111.479187,1,2,1,1,2,100,,,,
19:15:40,1.449839509,0.482738509,0.448057419,0,1.36553622,0.154671582,0.060231207,0,1.239623636,0.121032644,0.297564767,0,0.861625719,0.874656542,0.123419991,0,0.346043056,0.574632345,0.021483138,0,835.2747253,767.985348,796.1904762,805.0549451,834.8717949,884.029304,-0.42041,-0.367249,0.849121,39.432678,18.026581,-111.479187,1,2,1,1,2,100,,,,
19:15:40,1.449839509,0.482738509,0.448057419,0,1.36553622,0.154671582,0.060231207,0,1.239623636,0.121032644,0.297564767,0,0.861625719,0.874656542,0.123419991,0,0.346043056,0.574632345,0.021483138,0,790.5494505,762.7472527,803.040293,779.2673993,759.1208791,888.8644689,-0.42041,-0.367249,0.849121,39.432678,18.026581,-111.479187,1,2,1,1,2,100,,,,
19:15:40,1.449839509,0.482738509,0.448057419,0,1.36553622,0.154671582,0.060231207,0,1.239623636,0.121032644,0.297564767,0,0.861625719,0.874656542,0.123419991,0,0.346043056,0.574632345,0.021483138,0,851.3919414,789.7435897,811.9047619,917.8754579,714.3956044,963.003663,-0.42041,-0.367249,0.849121,39.432678,18.026581,-111.479187,1,2,1,1,2,100,,,,
19:15:40,1.449839509,0.482738509,0.448057419,0,1.36553622,0.154671582,0.060231207,0,1.239623636,0.121032644,0.297564767,0,0.861625719,0.874656542,0.123419991,0,0.346043056,0.574632345,0.021483138,0,942.8571429,806.2637363,822.7838828,1093.150183,795.3846154,1079.450549,-0.42041,-0.367249,0.849121,39.432678,18.026581,-111.479187,1,2,1,1,2,100,,,,
19:15:40,1.449839509,0.482738509,0.448057419,0,1.36553622,0.154671582,0.060231207,0,1.239623636,0.121032644,0.297564767,0,0.861625719,0.874656542,0.123419991,0,0.346043056,0.574632345,0.021483138,0,912.6373626,798.2051282,822.3809524,1045.201465,838.0952381,970.6593407,-0.42041,-0.367249,0.849121,39.432678,18.026581,-111.479187,1,2,1,1,2,100,,,,
19:15:40,1.449839509,0.482738509,0.448057419,0,1.36553622,0.154671582,0.060231207,0,1.239623636,0.121032644,0.297564767,0,0.861625719,0.874656542,0.123419991,0,0.346043056,0.574632345,0.021483138,0,835.6776557,774.8351648,807.8754579,860.6593407,826.4102564,697.8754579,-0.42041,-0.367249,0.849121,39.432678,18.026581,-111.479187,1,2,1,1,2,100,,,,
19:15:40,1.449839509,0.482738509,0.448057419,0,1.36553622,0.154671582,0.060231207,0,1.239623636,0.121032644,0.297564767,0,0.861625719,0.874656542,0.123419991,0,0.346043056,0.574632345,0.021483138,0,798.2051282,765.1648352,799.010989,786.5201465,842.9304029,700.2930403,-0.42041,-0.367249,0.849121,39.432678,18.026581,-111.479187,1,2,1,1,2,100,,,,
19:15:40,1.449839509,0.482738509,0.448057419,0,1.36553622,0.154671582,0.060231207,0,1.239623636,0.121032644,0.297564767,0,0.861625719,0.874656542,0.123419991,0,0.346043056,0.574632345,0.021483138,0,809.4871795,774.029304,809.0842491,899.3406593,789.7435897,718.4249084,-0.42041,-0.367249,0.849121,39.432678,18.026581,-111.479187,1,2,1,1,2,100,,,,
19:15:40,1.449839509,0.482738509,0.448057419,0,1.36553622,0.154671582,0.060231207,0,1.239623636,0.121032644,0.297564767,0,0.861625719,0.874656542,0.123419991,0,0.346043056,0.574632345,0.021483138,0,898.5347985,791.3553114,821.978022,1103.626374,780.4761905,776.043956,-0.394653,-0.083801,0.618713,41.129913,7.521667,-51.911469,1,2,1,1,2,100,,,,
19:15:40,1.449839509,0.482738509,0.448057419,0,1.36553622,0.154671582,0.060231207,0,1.239623636,0.121032644,0.297564767,0,0.861625719,0.874656542,0.123419991,0,0.346043056,0.574632345,0.021483138,0,937.2161172,808.2783883,817.5457875,1090.32967,816.3369963,739.3772894,-0.394653,-0.083801,0.618713,41.129913,7.521667,-51.911469,1,2,1,1,2,100,,,,
19:15:40,1.449839509,0.482738509,0.448057419,0,1.36553622,0.154671582,0.060231207,0,1.239623636,0.121032644,0.297564767,0,0.861625719,0.874656542,0.123419991,0,0.346043056,0.574632345,0.021483138,0,875.970696,774.4322344,810.6959707,917.4725275,802.6373626,712.3809524,-0.394653,-0.083801,0.618713,41.129913,7.521667,-51.911469,1,2,1,1,2,100,,,,
19:15:40,1.449839509,0.482738509,0.448057419,0,1.36553622,0.154671582,0.060231207,0,1.239623636,0.121032644,0.297564767,0,0.861625719,0.874656542,0.123419991,0,0.346043056,0.574632345,0.021483138,0,836.0805861,755.4945055,806.6666667,829.2307692,765.1648352,697.8754579,-0.394653,-0.083801,0.618713,41.129913,7.521667,-51.911469,1,2,1,1,2,100,,,,
19:15:40,1.449839509,0.482738509,0.448057419,0,1.36553622,0.154671582,0.060231207,0,1.239623636,0.121032644,0.297564767,0,0.861625719,0.874656542,0.123419991,0,0.346043056,0.574632345,0.021483138,0,855.018315,778.4615385,813.9194139,919.8901099,759.5238095,721.2454212,-0.394653,-0.083801,0.618713,41.129913,7.521667,-51.911469,1,2,1,1,2,100,,,,
19:15:40,1.449839509,0.482738509,0.448057419,0,1.36553622,0.154671582,0.060231207,0,1.239623636,0.121032644,0.297564767,0,0.861625719,0.874656542,0.123419991,0,0.346043056,0.574632345,0.021483138,0,889.6703297,801.4285714,829.2307692,1146.739927,776.043956,849.3772894,-0.394653,-0.083801,0.618713,41.129913,7.521667,-51.911469,1,2,1,1,2,100,,,,
19:15:40,1.449839509,0.482738509,0.448057419,0,1.36553622,0.154671582,0.060231207,0,1.239623636,0.121032644,0.297564767,0,0.861625719,0.874656542,0.123419991,0,0.346043056,0.574632345,0.021483138,0,845.3479853,807.0695971,830.8424908,1184.615385,867.1062271,1095.164835,-0.394653,-0.083801,0.618713,41.129913,7.521667,-51.911469,1,2,1,1,2,100,,,,
19:15:40,1.449839509,0.482738509,0.448057419,0,1.36553622,0.154671582,0.060231207,0,1.239623636,0.121032644,0.297564767,0,0.861625719,0.874656542,0.123419991,0,0.346043056,0.574632345,0.021483138,0,782.0879121,799.4139194,824.7985348,1030.695971,858.2417582,1168.901099,-0.394653,-0.083801,0.618713,41.129913,7.521667,-51.911469,1,2,1,1,2,100,,,,
19:15:40,1.449839509,0.482738509,0.448057419,0,1.36553622,0.154671582,0.060231207,0,1.239623636,0.121032644,0.297564767,0,0.861625719,0.874656542,0.123419991,0,0.346043056,0.574632345,0.021483138,0,726.0805861,778.8644689,820.7692308,909.4139194,816.7399267,886.8498168,-0.394653,-0.083801,0.618713,41.129913,7.521667,-51.911469,1,2,1,1,2,100,,,,
19:15:40,1.449839509,0.482738509,0.448057419,0,1.36553622,0.154671582,0.060231207,0,1.239623636,0.121032644,0.297564767,0,0.861625719,0.874656542,0.123419991,0,0.346043056,0.574632345,0.021483138,0,755.4945055,770.8058608,819.1575092,953.7362637,836.0805861,680.952381,-0.394653,-0.083801,0.618713,41.129913,7.521667,-51.911469,1,2,1,1,2,100,,,,
19:15:40,1.449839509,0.482738509,0.448057419,0,1.36553622,0.154671582,0.060231207,0,1.239623636,0.121032644,0.297564767,0,0.861625719,0.874656542,0.123419991,0,0.346043056,0.574632345,0.021483138,0,865.8974359,804.6520147,825.6043956,1168.498168,895.7142857,846.959707,-0.394653,-0.083801,0.618713,41.129913,7.521667,-51.911469,1,2,1,1,2,100,,,,
19:15:40,1.449839509,0.482738509,0.448057419,0,1.36553622,0.154671582,0.060231207,0,1.239623636,0.121032644,0.297564767,0,0.861625719,0.874656542,0.123419991,0,0.346043056,0.574632345,0.021483138,0,894.1025641,818.3516484,828.4249084,1214.029304,925.9340659,987.5824176,-0.394653,-0.083801,0.618713,41.129913,7.521667,-51.911469,1,2,1,1,2,100,,,,
19:15:40,1.449839509,0.482738509,0.448057419,0,1.36553622,0.154671582,0.060231207,0,1.239623636,0.121032644,0.297564767,0,0.861625719,0.874656542,0.123419991,0,0.346043056,0.574632345,0.021483138,0,801.4285714,791.3553114,830.03663,1027.875458,855.8241758,857.032967,-0.440613,0.431335,0.885071,63.134155,-16.336823,-38.333588,1,2,1,1,2,100,,,,
19:15:40,1.449839509,0.482738509,0.448057419,0,1.36553622,0.154671582,0.060231207,0,1.239623636,0.121032644,0.297564767,0,0.861625719,0.874656542,0.123419991,0,0.346043056,0.574632345,0.021483138,0,729.3040293,770,820.3663004,864.6886447,775.6410256,610.03663,-0.440613,0.431335,0.885071,63.134155,-16.336823,-38.333588,1,2,1,1,2,100,,,,
19:15:40,1.449839509,0.482738509,0.448057419,0,1.36553622,0.154671582,0.060231207,0,1.239623636,0.121032644,0.297564767,0,0.861625719,0.874656542,0.123419991,0,0.346043056,0.574632345,0.021483138,0,744.2124542,772.014652,809.4871795,863.4798535,708.3516484,596.7399267,-0.440613,0.431335,0.885071,63.134155,-16.336823,-38.333588,1,2,1,1,2,100,,,,
19:15:40,1.449839509,0.482738509,0.448057419,0,1.36553622,0.154671582,0.060231207,0,1.239623636,0.121032644,0.297564767,0,0.861625719,0.874656542,0.123419991,0,0.346043056,0.574632345,0.021483138,0,821.978022,787.7289377,813.5164835,1055.677656,712.7838828,716.4102564,-0.440613,0.431335,0.885071,63.134155,-16.336823,-38.333588,1,2,1,1,2,100,,,,
19:15:40,1.449839509,0.482738509,0.448057419,0,1.36553622,0.154671582,0.060231207,0,1.239623636,0.121032644,0.297564767,0,0.861625719,0.874656542,0.123419991,0,0.346043056,0.574632345,0.021483138,0,850.989011,796.1904762,814.3223443,1113.296703,693.8461538,744.2124542,-0.440613,0.431335,0.885071,63.134155,-16.336823,-38.333588,1,2,1,1,2,100,,,,
19:15:40,1.449839509,0.482738509,0.448057419,0,1.36553622,0.154671582,0.060231207,0,1.239623636,0.121032644,0.297564767,0,0.861625719,0.874656542,0.123419991,0,0.346043056,0.574632345,0.021483138,0,804.6520147,785.3113553,809.4871795,921.0989011,676.5201465,875.5677656,-0.440613,0.431335,0.885071,63.134155,-16.336823,-38.333588,1,2,1,1,2,100,,,,
19:15:40,1.449839509,0.482738509,0.448057419,0,1.36553622,0.154671582,0.060231207,0,1.239623636,0.121032644,0.297564767,0,0.861625719,0.874656542,0.123419991,0,0.346043056,0.574632345,0.021483138,0,765.5677656,765.5677656,808.6813187,759.1208791,782.0879121,1031.904762,-0.440613,0.431335,0.885071,63.134155,-16.336823,-38.333588,1,2,1,1,2,100,,,,
19:15:40,1.449839509,0.482738509,0.448057419,0,1.36553622,0.154671582,0.060231207,0,1.239623636,0.121032644,0.297564767,0,0.861625719,0.874656542,0.123419991,0,0.346043056,0.574632345,0.021483138,0,773.2234432,779.6703297,809.4871795,734.9450549,798.6080586,1015.787546,-0.440613,0.431335,0.885071,63.134155,-16.336823,-38.333588,1,2,1,1,2,100,,,,
19:15:40,1.449839509,0.482738509,0.448057419,0,1.36553622,0.154671582,0.060231207,0,1.239623636,0.121032644,0.297564767,0,0.861625719,0.874656542,0.123419991,0,0.346043056,0.574632345,0.021483138,0,842.9304029,782.8937729,813.1135531,881.2087912,754.2857143,893.2967033,-0.440613,0.431335,0.885071,63.134155,-16.336823,-38.333588,1,2,1,1,2,100,,,,
19:15:40,1.449839509,0.482738509,0.448057419,0,1.36553622,0.154671582,0.060231207,0,1.239623636,0.121032644,0.297564767,0,0.861625719,0.874656542,0.123419991,0,0.346043056,0.574632345,0.021483138,0,865.4945055,780.4761905,821.978022,993.6263736,789.7435897,860.2564103,-0.440613,0.431335,0.885071,63.134155,-16.336823,-38.333588,1,2,1,1,2,100,,,,
19:15:40,1.449839509,0.482738509,0.448057419,0,1.36553622,0.154671582,0.060231207,0,1.239623636,0.121032644,0.297564767,0,0.861625719,0.874656542,0.123419991,0,0.346043056,0.574632345,0.021483138,0,837.6923077,779.6703297,815.9340659,854.6153846,811.0989011,743.003663,-0.440613,0.431335,0.885071,63.134155,-16.336823,-38.333588,1,2,1,1,2,100,,,,
19:15:40,1.449839509,0.482738509,0.448057419,0,1.36553622,0.154671582,0.060231207,0,1.239623636,0.121032644,0.297564767,0,0.861625719,0.874656542,0.123419991,0,0.346043056,0.574632345,0.021483138,0,781.6849817,767.5824176,790.952381,669.6703297,823.992674,713.992674,-0.440613,0.431335,0.885071,63.134155,-16.336823,-38.333588,1,2,1,1,2,100,,,,
19:15:40,1.449839509,0.482738509,0.448057419,0,1.36553622,0.154671582,0.060231207,0,1.239623636,0.121032644,0.297564767,0,0.861625719,0.874656542,0.123419991,0,0.346043056,0.574632345,0.021483138,0,738.974359,770.4029304,789.7435897,631.3919414,894.9084249,797.3992674,-0.323059,0.68103,1.028931,45.578613,-20.172424,-74.43161,1,2,1,1,2,100,,,,
19:15:40,1.449839509,0.482738509,0.448057419,0,1.36553622,0.154671582,0.060231207,0,1.239623636,0.121032644,0.297564767,0,0.861625719,0.874656542,0.123419991,0,0.346043056,0.574632345,0.021483138,0,756.7032967,790.1465201,803.4432234,778.4615385,913.8461538,745.4212454,-0.323059,0.68103,1.028931,45.578613,-20.172424,-74.43161,1,2,1,1,2,100,,,,
19:15:40,1.449839509,0.482738509,0.448057419,0,1.36553622,0.154671582,0.060231207,0,1.239623636,0.121032644,0.297564767,0,0.861625719,0.874656542,0.123419991,0,0.346043056,0.574632345,0.021483138,0,755.4945055,813.5164835,807.0695971,896.9230769,898.1318681,817.1428571,-0.323059,0.68103,1.028931,45.578613,-20.172424,-74.43161,1,2,1,1,2,100,,,,
19:15:40,1.449839509,0.482738509,0.448057419,0,1.36553622,0.154671582,0.060231207,0,1.239623636,0.121032644,0.297564767,0,0.861625719,0.874656542,0.123419991,0,0.346043056,0.574632345,0.021483138,0,738.5714286,798.2051282,806.6666667,787.3260073,894.9084249,848.5714286,-0.323059,0.68103,1.028931,45.578613,-20.172424,-74.43161,1,2,1,1,2,100,,,,
19:15:40,1.449839509,0.482738509,0.448057419,0,1.36553622,0.154671582,0.060231207,0,1.239623636,0.121032644,0.297564767,0,0.861625719,0.874656542,0.123419991,0,0.346043056,0.574632345,0.021483138,0,664.8351648,781.2820513,799.4139194,606.8131868,864.2857143,718.8278388,-0.323059,0.68103,1.028931,45.578613,-20.172424,-74.43161,1,2,1,1,2,100,,,,
19:15:40,1.449839509,0.482738509,0.448057419,0,1.36553622,0.154671582,0.060231207,0,1.239623636,0.121032644,0.297564767,0,0.861625719,0.874656542,0.123419991,0,0.346043056,0.574632345,0.021483138,0,612.8571429,775.2380952,786.9230769,541.5384615,846.5567766,736.5567766,-0.323059,0.68103,1.028931,45.578613,-20.172424,-74.43161,1,2,1,1,2,100,,,,
19:15:40,1.449839509,0.482738509,0.448057419,0,1.36553622,0.154671582,0.060231207,0,1.239623636,0.121032644,0.297564767,0,0.861625719,0.874656542,0.123419991,0,0.346043056,0.574632345,0.021483138,0,694.2490842,794.5787546,787.7289377,693.040293,827.2161172,923.5164835,-0.323059,0.68103,1.028931,45.578613,-20.172424,-74.43161,1,2,1,1,2,100,,,,
19:15:40,1.449839509,0.482738509,0.448057419,0,1.36553622,0.154671582,0.060231207,0,1.239623636,0.121032644,0.297564767,0,0.861625719,0.874656542,0.123419991,0,0.346043056,0.574632345,0.021483138,0,784.1025641,812.3076923,796.996337,864.2857143,710.7692308,789.7435897,-0.323059,0.68103,1.028931,45.578613,-20.172424,-74.43161,1,2,1,1,2,100,,,,
19:15:40,1.449839509,0.482738509,0.448057419,0,1.36553622,0.154671582,0.060231207,0,1.239623636,0.121032644,0.297564767,0,0.861625719,0.874656542,0.123419991,0,0.346043056,0.574632345,0.021483138,0,760.7326007,811.9047619,787.7289377,765.970696,704.3223443,604.7985348,-0.323059,0.68103,1.028931,45.578613,-20.172424,-74.43161,1,2,1,1,2,100,,,,
19:15:40,1.449839509,0.482738509,0.448057419,0,1.36553622,0.154671582,0.060231207,0,1.239623636,0.121032644,0.297564767,0,0.861625719,0.874656542,0.123419991,0,0.346043056,0.574632345,0.021483138,0,687.8021978,805.8608059,767.1794872,567.3260073,758.3150183,523.8095238,-0.323059,0.68103,1.028931,45.578613,-20.172424,-74.43161,1,2,1,1,2,100,,,,
19:15:40,1.449839509,0.482738509,0.448057419,0,1.36553622,0.154671582,0.060231207,0,1.239623636,0.121032644,0.297564767,0,0.861625719,0.874656542,0.123419991,0,0.346043056,0.574632345,0.021483138,0,663.6263736,801.4285714,757.1062271,508.4981685,696.2637363,463.7728938,-0.323059,0.68103,1.028931,45.578613,-20.172424,-74.43161,1,2,1,1,2,100,,,,
19:15:40,1.449839509,0.482738509,0.448057419,0,1.36553622,0.154671582,0.060231207,0,1.239623636,0.121032644,0.297564767,0,0.861625719,0.874656542,0.123419991,0,0.346043056,0.574632345,0.021483138,0,744.2124542,819.96337,761.1355311,651.1355311,735.7509158,668.8644689,-0.323059,0.68103,1.028931,45.578613,-20.172424,-74.43161,1,2,1,1,2,100,,,,
19:15:40,1.449839509,0.482738509,0.448057419,0,1.36553622,0.154671582,0.060231207,0,1.239623636,0.121032644,0.297564767,0,0.861625719,0.874656542,0.123419991,0,0.346043056,0.574632345,0.021483138,0,834.4688645,848.974359,773.2234432,854.6153846,832.8571429,903.7728938,-0.323792,0.248962,0.944336,30.759583,-3.798218,-93.30307,1,2,1,1,2,100,,,,
19:15:40,1.449839509,0.482738509,0.448057419,0,1.36553622,0.154671582,0.060231207,0,1.239623636,0.121032644,0.297564767,0,0.861625719,0.874656542,0.123419991,0,0.346043056,0.574632345,0.021483138,0,813.5164835,849.3772894,772.4175824,789.3406593,817.1428571,785.7142857,-0.323792,0.248962,0.944336,30.759583,-3.798218,-93.30307,1,2,1,1,2,100,,,,
19:15:40,1.449839509,0.482738509,0.448057419,0,1.36553622,0.154671582,0.060231207,0,1.239623636,0.121032644,0.297564767,0,0.861625719,0.874656542,0.123419991,0,0.346043056,0.574632345,0.021483138,0,737.7655678,809.4871795,758.7179487,593.9194139,716.8131868,603.992674,-0.323792,0.248962,0.944336,30.759583,-3.798218,-93.30307,1,2,1,1,2,100,,,,
19:15:40,1.449839509,0.482738509,0.448057419,0,1.36553622,0.154671582,0.060231207,0,1.239623636,0.121032644,0.297564767,0,0.861625719,0.874656542,0.123419991,0,0.346043056,0.574632345,0.021483138,0,714.3956044,796.5934066,744.6153846,525.4212454,713.1868132,569.7435897,-0.323792,0.248962,0.944336,30.759583,-3.798218,-93.30307,1,2,1,1,2,100,,,,
19:15:40,1.449839509,0.482738509,0.448057419,0,1.36553622,0.154671582,0.060231207,0,1.239623636,0.121032644,0.297564767,0,0.861625719,0.874656542,0.123419991,0,0.346043056,0.574632345,0.021483138,0,773.2234432,817.1428571,752.6739927,628.5714286,738.1684982,600.3663004,-0.323792,0.248962,0.944336,30.759583,-3.798218,-93.30307,1,2,1,1,2,100,,,,
19:15:40,1.449839509,0.482738509,0.448057419,0,1.36553622,0.154671582,0.060231207,0,1.239623636,0.121032644,0.297564767,0,0.861625719,0.874656542,0.123419991,0,0.346043056,0.574632345,0.021483138,0,857.032967,838.9010989,782.4908425,840.5128205,728.0952381,739.7802198,-0.323792,0.248962,0.944336,30.759583,-3.798218,-93.30307,1,2,1,1,2,100,,,,
19:15:40,1.449839509,0.482738509,0.448057419,0,1.36553622,0.154671582,0.060231207,0,1.239623636,0.121032644,0.297564767,0,0.861625719,0.874656542,0.123419991,0,0.346043056,0.574632345,0.021483138,0,831.6483516,837.6923077,781.2820513,815.9340659,784.1025641,1024.249084,-0.323792,0.248962,0.944336,30.759583,-3.798218,-93.30307,1,2,1,1,2,100,,,,
19:15:40,1.449839509,0.482738509,0.386382677,0,1.36553622,0.154671582,0.010028908,0,1.239623636,0.121032644,0.250147094,0,0.861625719,0.874656542,0.124342676,0,0.346043056,0.574632345,-0.022929744,0,745.4212454,777.6556777,765.970696,611.2454212,772.4175824,1022.637363,-0.323792,0.248962,0.944336,30.759583,-3.798218,-93.30307,1,2,1,1,2,100,,,,
19:15:40,1.449839509,0.482738509,0.386382677,0,1.36553622,0.154671582,0.010028908,0,1.239623636,0.121032644,0.250147094,0,0.861625719,0.874656542,0.124342676,0,0.346043056,0.574632345,-0.022929744,0,708.7545788,770,763.5531136,504.8717949,727.6923077,664.8351648,-0.323792,0.248962,0.944336,30.759583,-3.798218,-93.30307,1,2,1,1,2,100,,,,
19:15:40,1.449839509,0.482738509,0.386382677,0,1.36553622,0.154671582,0.010028908,0,1.239623636,0.121032644,0.250147094,0,0.861625719,0.874656542,0.124342676,0,0.346043056,0.574632345,-0.022929744,0,747.4358974,804.6520147,769.1941392,578.6080586,767.5824176,504.0659341,-0.323792,0.248962,0.944336,30.759583,-3.798218,-93.30307,1,2,1,1,2,100,,,,
19:15:40,1.449839509,0.482738509,0.386382677,0,1.36553622,0.154671582,0.010028908,0,1.239623636,0.121032644,0.250147094,0,0.861625719,0.874656542,0.124342676,0,0.346043056,0.574632345,-0.022929744,0,833.2600733,823.1868132,781.6849817,800.2197802,773.2234432,653.956044,-0.323792,0.248962,0.944336,30.759583,-3.798218,-93.30307,1,2,1,1,2,100,,,,
19:15:40,1.449839509,0.482738509,0.386382677,0,1.36553622,0.154671582,0.010028908,0,1.239623636,0.121032644,0.250147094,0,0.861625719,0.874656542,0.124342676,0,0.346043056,0.574632345,-0.022929744,0,834.8717949,832.0512821,786.9230769,844.1391941,804.6520147,779.6703297,-0.323792,0.248962,0.944336,30.759583,-3.798218,-93.30307,1,2,1,1,2,100,,,,
19:15:40,1.449839509,0.482738509,0.386382677,0,1.36553622,0.154671582,0.010028908,0,1.239623636,0.121032644,0.250147094,0,0.861625719,0.874656542,0.124342676,0,0.346043056,0.574632345,-0.022929744,0,761.5384615,815.5311355,783.2967033,665.6410256,820.7692308,720.4395604,-0.323792,0.248962,0.944336,30.759583,-3.798218,-93.30307,1,2,1,1,2,100,,,,
19:15:40,1.449839509,0.482738509,0.386382677,0,1.36553622,0.154671582,0.010028908,0,1.239623636,0.121032644,0.250147094,0,0.861625719,0.874656542,0.124342676,0,0.346043056,0.574632345,-0.022929744,0,707.1428571,787.7289377,774.8351648,526.6300366,740.1831502,531.4652015,-0.323792,0.248962,0.944336,30.759583,-3.798218,-93.30307,1,2,1,1,2,100,,,,
19:15:40,1.449839509,0.482738509,0.386382677,0,1.36553622,0.154671582,0.010028908,0,1.239623636,0.121032644,0.250147094,0,0.861625719,0.874656542,0.124342676,0,0.346043056,0.574632345,-0.022929744,0,727.6923077,781.2820513,775.2380952,572.5641026,732.1245421,695.8608059,-0.323792,0.248962,0.944336,30.759583,-3.798218,-93.30307,1,2,1,1,2,100,,,,
19:15:40,1.449839509,0.482738509,0.386382677,0,1.36553622,0.154671582,0.010028908,0,1.239623636,0.121032644,0.250147094,0,0.861625719,0.874656542,0.124342676,0,0.346043056,0.574632345,-0.022929744,0,811.9047619,817.1428571,788.5347985,803.040293,823.1868132,903.7728938,-0.323792,0.248962,0.944336,30.759583,-3.798218,-93.30307,1,2,1,1,2,100,,,,
19:15:40,1.449839509,0.482738509,0.386382677,0,1.36553622,0.154671582,0.010028908,0,1.239623636,0.121032644,0.250147094,0,0.861625719,0.874656542,0.124342676,0,0.346043056,0.574632345,-0.022929744,0,841.7216117,826.8131868,801.4285714,874.3589744,810.6959707,782.4908425,-0.323792,0.248962,0.944336,30.759583,-3.798218,-93.30307,1,2,1,1,2,100,,,,
19:15:40,1.449839509,0.482738509,0.386382677,0,1.36553622,0.154671582,0.010028908,0,1.239623636,0.121032644,0.250147094,0,0.861625719,0.874656542,0.124342676,0,0.346043056,0.574632345,-0.022929744,0,772.014652,801.8315018,794.5787546,694.6520147,746.6300366,808.6813187,-0.323792,0.248962,0.944336,30.759583,-3.798218,-93.30307,1,2,1,1,2,100,,,,
19:15:40,1.449839509,0.482738509,0.386382677,0,1.36553622,0.154671582,0.010028908,0,1.239623636,0.121032644,0.250147094,0,0.861625719,0.874656542,0.124342676,0,0.346043056,0.574632345,-0.022929744,0,701.9047619,771.6117216,781.2820513,533.8827839,784.9084249,1021.428571,-0.323792,0.248962,0.944336,30.759583,-3.798218,-93.30307,1,2,1,1,2,100,,,,
19:15:40,1.449839509,0.482738509,0.386382677,0,1.36553622,0.154671582,0.010028908,0,1.239623636,0.121032644,0.250147094,0,0.861625719,0.874656542,0.124342676,0,0.346043056,0.574632345,-0.022929744,0,720.03663,747.8388278,784.1025641,543.956044,807.4725275,832.8571429,-0.323792,0.248962,0.944336,30.759583,-3.798218,-93.30307,1,2,1,1,2,100,,,,
19:15:40,1.449839509,0.482738509,0.386382677,0,1.36553622,0.154671582,0.010028908,0,1.239623636,0.121032644,0.250147094,0,0.861625719,0.874656542,0.124342676,0,0.346043056,0.574632345,-0.022929744,0,810.2930403,792.967033,803.040293,763.1501832,761.9413919,637.4358974,-0.323792,0.248962,0.944336,30.759583,-3.798218,-93.30307,1,2,1,1,2,100,,,,
19:15:40,1.449839509,0.482738509,0.386382677,0,1.36553622,0.154671582,0.010028908,0,1.239623636,0.121032644,0.250147094,0,0.861625719,0.874656542,0.124342676,0,0.346043056,0.574632345,-0.022929744,0,840.5128205,816.7399267,806.6666667,862.2710623,672.8937729,591.0989011,-0.323792,0.248962,0.944336,30.759583,-3.798218,-93.30307,1,2,1,1,2,100,,,,
19:15:40,1.449839509,0.482738509,0.386382677,0,1.36553622,0.154671582,0.010028908,0,1.239623636,0.121032644,0.250147094,0,0.861625719,0.874656542,0.124342676,0,0.346043056,0.574632345,-0.022929744,0,774.8351648,796.996337,794.1758242,702.3076923,734.1391941,635.8241758,-0.323792,0.248962,0.944336,30.759583,-3.798218,-93.30307,1,2,1,1,2,100,,,,
19:15:40,1.449839509,0.482738509,0.386382677,0,1.36553622,0.154671582,0.010028908,0,1.239623636,0.121032644,0.250147094,0,0.861625719,0.874656542,0.124342676,0,0.346043056,0.574632345,-0.022929744,0,698.2783883,783.2967033,783.6996337,535.8974359,753.8827839,618.9010989,-0.323792,0.248962,0.944336,30.759583,-3.798218,-93.30307,1,2,1,1,2,100,,,,
19:15:40,1.449839509,0.482738509,0.386382677,0,1.36553622,0.154671582,0.010028908,0,1.239623636,0.121032644,0.250147094,0,0.861625719,0.874656542,0.124342676,0,0.346043056,0.574632345,-0.022929744,0,699.4871795,777.6556777,787.3260073,520.5860806,626.1538462,466.5934066,-0.360962,0.101624,0.840515,16.882629,1.383209,-68.726807,1,2,1,1,2,100,,,,
19:15:40,1.449839509,0.482738509,0.386382677,0,1.36553622,0.154671582,0.010028908,0,1.239623636,0.121032644,0.250147094,0,0.861625719,0.874656542,0.124342676,0,0.346043056,0.574632345,-0.022929744,0,787.3260073,795.3846154,798.6080586,722.4542125,674.9084249,521.7948718,-0.360962,0.101624,0.840515,16.882629,1.383209,-68.726807,1,2,1,1,2,100,,,,
19:15:40,1.449839509,0.482738509,0.386382677,0,1.36553622,0.154671582,0.010028908,0,1.239623636,0.121032644,0.250147094,0,0.861625719,0.874656542,0.124342676,0,0.346043056,0.574632345,-0.022929744,0,835.6776557,819.1575092,799.8168498,875.1648352,785.3113553,725.6776557,-0.360962,0.101624,0.840515,16.882629,1.383209,-68.726807,1,2,1,1,2,100,,,,
19:15:40,1.449839509,0.482738509,0.386382677,0,1.36553622,0.154671582,0.010028908,0,1.239623636,0.121032644,0.250147094,0,0.861625719,0.874656542,0.124342676,0,0.346043056,0.574632345,-0.022929744,0,776.043956,818.3516484,794.1758242,739.3772894,754.2857143,713.992674,-0.360962,0.101624,0.840515,16.882629,1.383209,-68.726807,1,2,1,1,2,100,,,,
19:15:40,1.449839509,0.482738509,0.386382677,0,1.36553622,0.154671582,0.010028908,0,1.239623636,0.121032644,0.250147094,0,0.861625719,0.874656542,0.124342676,0,0.346043056,0.574632345,-0.022929744,0,709.5604396,786.9230769,788.1318681,543.956044,746.6300366,650.3296703,-0.360962,0.101624,0.840515,16.882629,1.383209,-68.726807,1,2,1,1,2,100,,,,
19:15:40,1.449839509,0.482738509,0.386382677,0,1.36553622,0.154671582,0.010028908,0,1.239623636,0.121032644,0.250147094,0,0.861625719,0.874656542,0.124342676,0,0.346043056,0.574632345,-0.022929744,0,710.7692308,772.8205128,787.3260073,503.6630037,722.0512821,684.981685,-0.360962,0.101624,0.840515,16.882629,1.383209,-68.726807,1,2,1,1,2,100,,,,
19:15:40,1.449839509,0.482738509,0.386382677,0,1.36553622,0.154671582,0.010028908,0,1.239623636,0.121032644,0.250147094,0,0.861625719,0.874656542,0.124342676,0,0.346043056,0.574632345,-0.022929744,0,790.5494505,795.3846154,796.996337,695.0549451,689.8168498,815.1282051,-0.360962,0.101624,0.840515,16.882629,1.383209,-68.726807,1,2,1,1,2,100,,,,
19:15:40,1.449839509,0.482738509,0.386382677,0,1.36553622,0.154671582,0.010028908,0,1.239623636,0.121032644,0.250147094,0,0.861625719,0.874656542,0.124342676,0,0.346043056,0.574632345,-0.022929744,0,849.3772894,814.7252747,806.6666667,873.5531136,813.5164835,1059.304029,-0.360962,0.101624,0.840515,16.882629,1.383209,-68.726807,1,2,1,1,2,100,,,,
19:15:40,1.449839509,0.482738509,0.386382677,0,1.36553622,0.154671582,0.010028908,0,1.239623636,0.121032644,0.250147094,0,0.861625719,0.874656542,0.124342676,0,0.346043056,0.574632345,-0.022929744,0,803.4432234,803.4432234,799.4139194,757.5091575,872.7472527,1107.252747,-0.360962,0.101624,0.840515,16.882629,1.383209,-68.726807,1,2,1,1,2,100,,,,
19:15:40,1.449839509,0.482738509,0.384780942,0,1.36553622,0.154671582,-0.065099007,0,1.239623636,0.121032644,0.197597542,0,0.861625719,0.874656542,0.137320362,0,0.346043056,0.574632345,-0.066425233,0,719.6336996,767.985348,783.2967033,535.8974359,692.6373626,647.5091575,-0.360962,0.101624,0.840515,16.882629,1.383209,-68.726807,1,2,1,1,2,100,,,,
19:15:40,1.449839509,0.482738509,0.384780942,0,1.36553622,0.154671582,-0.065099007,0,1.239623636,0.121032644,0.197597542,0,0.861625719,0.874656542,0.137320362,0,0.346043056,0.574632345,-0.066425233,0,692.2344322,753.8827839,780.4761905,464.1758242,712.3809524,506.0805861,-0.360962,0.101624,0.840515,16.882629,1.383209,-68.726807,1,2,1,1,2,100,,,,
19:15:40,1.449839509,0.482738509,0.384780942,0,1.36553622,0.154671582,-0.065099007,0,1.239623636,0.121032644,0.197597542,0,0.861625719,0.874656542,0.137320362,0,0.346043056,0.574632345,-0.066425233,0,769.5970696,782.4908425,796.5934066,649.9267399,792.1611722,682.1611722,-0.360962,0.101624,0.840515,16.882629,1.383209,-68.726807,1,2,1,1,2,100,,,,
19:15:40,1.449839509,0.482738509,0.384780942,0,1.36553622,0.154671582,-0.065099007,0,1.239623636,0.121032644,0.197597542,0,0.861625719,0.874656542,0.137320362,0,0.346043056,0.574632345,-0.066425233,0,848.5714286,807.8754579,810.6959707,849.3772894,764.3589744,716.4102564,-0.406677,0.039551,0.816711,11.461945,2.930908,-47.53006,1,2,1,1,2,100,,,,
19:15:40,1.449839509,0.482738509,0.384780942,0,1.36553622,0.154671582,-0.065099007,0,1.239623636,0.121032644,0.197597542,0,0.861625719,0.874656542,0.137320362,0,0.346043056,0.574632345,-0.066425233,0,810.6959707,790.952381,803.4432234,745.4212454,759.9267399,625.7509158,-0.406677,0.039551,0.816711,11.461945,2.930908,-47.53006,1,2,1,1,2,100,,,,
19:15:40,1.449839509,0.482738509,0.384780942,0,1.36553622,0.154671582,-0.065099007,0,1.239623636,0.121032644,0.197597542,0,0.861625719,0.874656542,0.137320362,0,0.346043056,0.574632345,-0.066425233,0,722.4542125,759.1208791,791.3553114,528.2417582,666.4468864,508.4981685,-0.406677,0.039551,0.816711,11.461945,2.930908,-47.53006,1,2,1,1,2,100,,,,
19:15:40,1.449839509,0.482738509,0.384780942,0,1.36553622,0.154671582,-0.065099007,0,1.239623636,0.121032644,0.197597542,0,0.861625719,0.874656542,0.137320362,0,0.346043056,0.574632345,-0.066425233,0,684.5787546,762.7472527,785.3113553,421.4652015,638.6446886,491.5750916,-0.406677,0.039551,0.816711,11.461945,2.930908,-47.53006,1,2,1,1,2,100,,,,
19:15:40,1.449839509,0.482738509,0.384780942,0,1.36553622,0.154671582,-0.065099007,0,1.239623636,0.121032644,0.197597542,0,0.861625719,0.874656542,0.137320362,0,0.346043056,0.574632345,-0.066425233,0,733.7362637,788.9377289,788.9377289,543.956044,738.1684982,645.8974359,-0.406677,0.039551,0.816711,11.461945,2.930908,-47.53006,1,2,1,1,2,100,,,,
19:15:40,1.449839509,0.482738509,0.384780942,0,1.36553622,0.154671582,-0.065099007,0,1.239623636,0.121032644,0.197597542,0,0.861625719,0.874656542,0.137320362,0,0.346043056,0.574632345,-0.066425233,0,793.7728938,798.2051282,800.2197802,772.014652,774.4322344,983.5531136,-0.406677,0.039551,0.816711,11.461945,2.930908,-47.53006,1,2,1,1,2,100,,,,
19:15:40,1.449839509,0.482738509,0.384780942,0,1.36553622,0.154671582,-0.065099007,0,1.239623636,0.121032644,0.197597542,0,0.861625719,0.874656542,0.137320362,0,0.346043056,0.574632345,-0.066425233,0,768.3882784,782.4908425,798.2051282,727.2893773,800.2197802,1116.923077,-0.406677,0.039551,0.816711,11.461945,2.930908,-47.53006,1,2,1,1,2,100,,,,
19:15:40,1.449839509,0.482738509,0.384780942,0,1.36553622,0.154671582,-0.065099007,0,1.239623636,0.121032644,0.197597542,0,0.861625719,0.874656542,0.137320362,0,0.346043056,0.574632345,-0.066425233,0,689.010989,767.985348,785.7142857,498.4249084,781.2820513,813.9194139,-0.406677,0.039551,0.816711,11.461945,2.930908,-47.53006,1,2,1,1,2,100,,,,
19:15:40,1.449839509,0.482738509,0.384780942,0,1.36553622,0.154671582,-0.065099007,0,1.239623636,0.121032644,0.197597542,0,0.861625719,0.874656542,0.137320362,0,0.346043056,0.574632345,-0.066425233,0,653.1501832,751.4652015,779.6703297,361.4285714,689.010989,570.1465201,-0.406677,0.039551,0.816711,11.461945,2.930908,-47.53006,1,2,1,1,2,100,,,,
19:15:40,1.449839509,0.482738509,0.384780942,0,1.36553622,0.154671582,-0.065099007,0,1.239623636,0.121032644,0.197597542,0,0.861625719,0.874656542,0.137320362,0,0.346043056,0.574632345,-0.066425233,0,701.0989011,747.032967,782.4908425,452.8937729,695.4578755,578.2051282,-0.406677,0.039551,0.816711,11.461945,2.930908,-47.53006,1,2,1,1,2,100,,,,
19:15:40,1.449839509,0.482738509,0.384780942,0,1.36553622,0.154671582,-0.065099007,0,1.239623636,0.121032644,0.197597542,0,0.861625719,0.874656542,0.137320362,0,0.346043056,0.574632345,-0.066425233,0,778.0586081,780.8791209,788.5347985,685.7875458,828.8278388,696.2637363,-0.406677,0.039551,0.816711,11.461945,2.930908,-47.53006,1,2,1,1,2,100,,,,
19:15:40,1.449839509,0.482738509,0.384780942,0,1.36553622,0.154671582,-0.065099007,0,1.239623636,0.121032644,0.197597542,0,0.861625719,0.874656542,0.137320362,0,0.346043056,0.574632345,-0.066425233,0,767.5824176,775.6410256,785.7142857,674.9084249,894.5054945,801.025641,-0.406677,0.039551,0.816711,11.461945,2.930908,-47.53006,1,2,1,1,2,100,,,,
19:15:40,1.449839509,0.482738509,0.384780942,0,1.36553622,0.154671582,-0.065099007,0,1.239623636,0.121032644,0.197597542,0,0.861625719,0.874656542,0.137320362,0,0.346043056,0.574632345,-0.066425233,0,686.1904762,738.974359,775.2380952,457.3260073,818.3516484,680.952381,-0.400574,0.099854,0.788452,14.265747,-3.439331,-30.325928,1,2,1,1,2,100,,,,
19:15:40,1.449839509,0.482738509,0.384780942,0,1.36553622,0.154671582,-0.065099007,0,1.239623636,0.121032644,0.197597542,0,0.861625719,0.874656542,0.137320362,0,0.346043056,0.574632345,-0.066425233,0,616.8864469,725.2747253,761.1355311,296.5567766,694.6520147,433.956044,-0.400574,0.099854,0.788452,14.265747,-3.439331,-30.325928,1,2,1,1,2,100,,,,
19:15:40,1.449839509,0.482738509,0.384780942,0,1.36553622,0.154671582,-0.065099007,0,1.239623636,0.121032644,0.197597542,0,0.861625719,0.874656542,0.137320362,0,0.346043056,0.574632345,-0.066425233,0,637.032967,738.5714286,759.5238095,365.8608059,721.2454212,504.4688645,-0.400574,0.099854,0.788452,14.265747,-3.439331,-30.325928,1,2,1,1,2,100,,,,
19:15:40,1.449839509,0.482738509,0.384780942,0,1.36553622,0.154671582,-0.065099007,0,1.239623636,0.121032644,0.197597542,0,0.861625719,0.874656542,0.137320362,0,0.346043056,0.574632345,-0.066425233,0,725.6776557,772.014652,771.6117216,616.8864469,798.6080586,704.3223443,-0.400574,0.099854,0.788452,14.265747,-3.439331,-30.325928,1,2,1,1,2,100,,,,
19:15:40,1.449839509,0.482738509,0.384780942,0,1.36553622,0.154671582,-0.065099007,0,1.239623636,0.121032644,0.197597542,0,0.861625719,0.874656542,0.137320362,0,0.346043056,0.574632345,-0.066425233,0,729.3040293,776.4468864,778.8644689,657.985348,786.5201465,722.8571429,-0.400574,0.099854,0.788452,14.265747,-3.439331,-30.325928,1,2,1,1,2,100,,,,
19:15:40,1.449839509,0.482738509,0.384780942,0,1.36553622,0.154671582,-0.065099007,0,1.239623636,0.121032644,0.197597542,0,0.861625719,0.874656542,0.137320362,0,0.346043056,0.574632345,-0.066425233,0,651.9413919,749.4505495,773.2234432,451.6849817,772.4175824,729.3040293,-0.400574,0.099854,0.788452,14.265747,-3.439331,-30.325928,1,2,1,1,2,100,,,,
19:15:40,1.449839509,0.482738509,0.384780942,0,1.36553622,0.154671582,-0.065099007,0,1.239623636,0.121032644,0.197597542,0,0.861625719,0.874656542,0.137320362,0,0.346043056,0.574632345,-0.066425233,0,606.8131868,744.6153846,765.970696,275.6043956,710.7692308,716.007326,-0.400574,0.099854,0.788452,14.265747,-3.439331,-30.325928,1,2,1,1,2,100,,,,
19:15:40,1.449839509,0.482738509,0.384780942,0,1.36553622,0.154671582,-0.065099007,0,1.239623636,0.121032644,0.197597542,0,0.861625719,0.874656542,0.137320362,0,0.346043056,0.574632345,-0.066425233,0,640.6593407,751.0622711,770,319.1208791,710.7692308,800.2197802,-0.400574,0.099854,0.788452,14.265747,-3.439331,-30.325928,1,2,1,1,2,100,,,,
19:15:40,1.449839509,0.482738509,0.384780942,0,1.36553622,0.154671582,-0.065099007,0,1.239623636,0.121032644,0.197597542,0,0.861625719,0.874656542,0.137320362,0,0.346043056,0.574632345,-0.066425233,0,745.8241758,759.9267399,779.2673993,574.1758242,721.6483516,815.1282051,-0.400574,0.099854,0.788452,14.265747,-3.439331,-30.325928,1,2,1,1,2,100,,,,
19:15:40,1.449839509,0.482738509,0.384780942,0,1.36553622,0.154671582,-0.065099007,0,1.239623636,0.121032644,0.197597542,0,0.861625719,0.874656542,0.137320362,0,0.346043056,0.574632345,-0.066425233,0,767.985348,763.956044,786.9230769,667.2527473,726.8864469,595.5311355,-0.400574,0.099854,0.788452,14.265747,-3.439331,-30.325928,1,2,1,1,2,100,,,,
19:15:40,1.449839509,0.482738509,0.384780942,0,1.36553622,0.154671582,-0.065099007,0,1.239623636,0.121032644,0.197597542,0,0.861625719,0.874656542,0.137320362,0,0.346043056,0.574632345,-0.066425233,0,664.8351648,747.8388278,777.2527473,487.9487179,773.6263736,547.5824176,-0.400574,0.099854,0.788452,14.265747,-3.439331,-30.325928,1,2,1,1,2,100,,,,
19:15:40,1.449839509,0.482738509,0.430020859,0,1.36553622,0.154671582,-0.168550826,0,1.239623636,0.121032644,0.11685787,0,0.861625719,0.874656542,0.162358401,0,0.346043056,0.574632345,-0.094799648,0,597.9487179,736.1538462,763.5531136,306.6300366,760.3296703,618.0952381,-0.400574,0.099854,0.788452,14.265747,-3.439331,-30.325928,1,2,1,1,2,100,,,,
19:15:40,1.449839509,0.482738509,0.430020859,0,1.36553622,0.154671582,-0.168550826,0,1.239623636,0.121032644,0.11685787,0,0.861625719,0.874656542,0.162358401,0,0.346043056,0.574632345,-0.094799648,0,627.7655678,741.7948718,767.1794872,334.029304,723.2600733,617.6923077,-0.396118,0.129089,0.776306,7.813263,-9.27124,-13.488159,1,2,1,1,2,100,,,,
19:15:40,1.449839509,0.482738509,0.430020859,0,1.36553622,0.154671582,-0.168550826,0,1.239623636,0.121032644,0.11685787,0,0.861625719,0.874656542,0.162358401,0,0.346043056,0.574632345,-0.094799648,0,719.2307692,762.3443223,778.4615385,599.1575092,739.3772894,501.2454212,-0.396118,0.129089,0.776306,7.813263,-9.27124,-13.488159,1,2,1,1,2,100,,,,
19:15:40,1.449839509,0.482738509,0.430020859,0,1.36553622,0.154671582,-0.168550826,0,1.239623636,0.121032644,0.11685787,0,0.861625719,0.874656542,0.162358401,0,0.346043056,0.574632345,-0.094799648,0,763.1501832,780.4761905,786.1172161,740.5860806,754.2857143,609.2307692,-0.396118,0.129089,0.776306,7.813263,-9.27124,-13.488159,1,2,1,1,2,100,,,,
19:15:40,1.449839509,0.482738509,0.430020859,0,1.36553622,0.154671582,-0.168550826,0,1.239623636,0.121032644,0.11685787,0,0.861625719,0.874656542,0.162358401,0,0.346043056,0.574632345,-0.094799648,0,705.5311355,778.0586081,778.8644689,581.8315018,707.9487179,610.8424908,-0.396118,0.129089,0.776306,7.813263,-9.27124,-13.488159,1,2,1,1,2,100,,,,
19:15:40,1.449839509,0.482738509,0.430020859,0,1.36553622,0.154671582,-0.168550826,0,1.239623636,0.121032644,0.11685787,0,0.861625719,0.874656542,0.162358401,0,0.346043056,0.574632345,-0.094799648,0,639.4505495,754.6886447,766.3736264,398.9010989,737.7655678,591.5018315,-0.396118,0.129089,0.776306,7.813263,-9.27124,-13.488159,1,2,1,1,2,100,,,,
19:15:40,1.449839509,0.482738509,0.430020859,0,1.36553622,0.154671582,-0.168550826,0,1.239623636,0.121032644,0.11685787,0,0.861625719,0.874656542,0.162358401,0,0.346043056,0.574632345,-0.094799648,0,653.956044,751.4652015,770.4029304,413.8095238,778.0586081,826.4102564,-0.396118,0.129089,0.776306,7.813263,-9.27124,-13.488159,1,2,1,1,2,100,,,,
19:15:40,1.449839509,0.482738509,0.430020859,0,1.36553622,0.154671582,-0.168550826,0,1.239623636,0.121032644,0.11685787,0,0.861625719,0.874656542,0.162358401,0,0.346043056,0.574632345,-0.094799648,0,748.2417582,780.8791209,783.6996337,678.1318681,757.1062271,950.9157509,-0.396118,0.129089,0.776306,7.813263,-9.27124,-13.488159,1,2,1,1,2,100,,,,
19:15:40,1.449839509,0.482738509,0.430020859,0,1.36553622,0.154671582,-0.168550826,0,1.239623636,0.121032644,0.11685787,0,0.861625719,0.874656542,0.162358401,0,0.346043056,0.574632345,-0.094799648,0,810.2930403,794.981685,788.9377289,864.6886447,748.6446886,824.3956044,-0.396118,0.129089,0.776306,7.813263,-9.27124,-13.488159,1,2,1,1,2,100,,,,
19:15:40,1.449839509,0.482738509,0.430020859,0,1.36553622,0.154671582,-0.168550826,0,1.239623636,0.121032644,0.11685787,0,0.861625719,0.874656542,0.162358401,0,0.346043056,0.574632345,-0.094799648,0,772.4175824,763.5531136,784.5054945,754.2857143,751.0622711,664.8351648,-0.396118,0.129089,0.776306,7.813263,-9.27124,-13.488159,1,2,1,1,2,100,,,,
19:15:40,1.449839509,0.482738509,0.430020859,0,1.36553622,0.154671582,-0.168550826,0,1.239623636,0.121032644,0.11685787,0,0.861625719,0.874656542,0.162358401,0,0.346043056,0.574632345,-0.094799648,0,709.96337,743.8095238,773.2234432,568.9377289,774.029304,561.2820513,-0.396118,0.129089,0.776306,7.813263,-9.27124,-13.488159,1,2,1,1,2,100,,,,
19:15:40,1.449839509,0.482738509,0.430020859,0,1.36553622,0.154671582,-0.168550826,0,1.239623636,0.121032644,0.11685787,0,0.861625719,0.874656542,0.162358401,0,0.346043056,0.574632345,-0.094799648,0,711.1721612,758.3150183,770.4029304,541.1355311,761.1355311,569.7435897,-0.396118,0.129089,0.776306,7.813263,-9.27124,-13.488159,1,2,1,1,2,100,,,,
19:15:40,1.449839509,0.482738509,0.430020859,0,1.36553622,0.154671582,-0.168550826,0,1.239623636,0.121032644,0.11685787,0,0.861625719,0.874656542,0.162358401,0,0.346043056,0.574632345,-0.094799648,0,794.5787546,785.3113553,783.6996337,770.8058608,784.9084249,718.021978,-0.396118,0.129089,0.776306,7.813263,-9.27124,-13.488159,1,2,1,1,2,100,,,,
19:15:40,1.449839509,0.482738509,0.430020859,0,1.36553622,0.154671582,-0.168550826,0,1.239623636,0.121032644,0.11685787,0,0.861625719,0.874656542,0.162358401,0,0.346043056,0.574632345,-0.094799648,0,864.2857143,812.3076923,796.5934066,991.6117216,826.007326,821.5750916,-0.396118,0.129089,0.776306,7.813263,-9.27124,-13.488159,1,2,1,1,2,100,,,,
19:15:40,1.449839509,0.482738509,0.430020859,0,1.36553622,0.154671582,-0.168550826,0,1.239623636,0.121032644,0.11685787,0,0.861625719,0.874656542,0.162358401,0,0.346043056,0.574632345,-0.094799648,0,836.8864469,804.2490842,793.3699634,908.2051282,770.8058608,706.7399267,-0.396118,0.129089,0.776306,7.813263,-9.27124,-13.488159,1,2,1,1,2,100,,,,
19:15:40,1.449839509,0.482738509,0.430020859,0,1.36553622,0.154671582,-0.168550826,0,1.239623636,0.121032644,0.11685787,0,0.861625719,0.874656542,0.162358401,0,0.346043056,0.574632345,-0.094799648,0,748.6446886,780.8791209,782.8937729,707.1428571,770.8058608,756.3003663,-0.396118,0.129089,0.776306,7.813263,-9.27124,-13.488159,1,2,1,1,2,100,,,,
19:15:40,1.449839509,0.482738509,0.430020859,0,1.36553622,0.154671582,-0.168550826,0,1.239623636,0.121032644,0.11685787,0,0.861625719,0.874656542,0.162358401,0,0.346043056,0.574632345,-0.094799648,0,722.8571429,768.7912088,780.8791209,644.6886447,744.6153846,756.3003663,-0.396118,0.129089,0.776306,7.813263,-9.27124,-13.488159,1,2,1,1,2,100,,,,
19:15:40,1.449839509,0.482738509,0.430020859,0,1.36553622,0.154671582,-0.168550826,0,1.239623636,0.121032644,0.11685787,0,0.861625719,0.874656542,0.162358401,0,0.346043056,0.574632345,-0.094799648,0,824.3956044,782.0879121,788.9377289,844.1391941,673.6996337,650.7326007,-0.396118,0.129089,0.776306,7.813263,-9.27124,-13.488159,1,2,1,1,2,100,,,,
19:15:40,1.449839509,0.482738509,0.430020859,0,1.36553622,0.154671582,-0.168550826,0,1.239623636,0.121032644,0.11685787,0,0.861625719,0.874656542,0.162358401,0,0.346043056,0.574632345,-0.094799648,0,928.3516484,815.1282051,794.981685,1083.076923,730.5128205,955.7509158,-0.396118,0.129089,0.776306,7.813263,-9.27124,-13.488159,1,2,1,1,2,100,,,,
19:15:40,1.449839509,0.482738509,0.430020859,0,1.36553622,0.154671582,-0.168550826,0,1.239623636,0.121032644,0.11685787,0,0.861625719,0.874656542,0.162358401,0,0.346043056,0.574632345,-0.094799648,0,902.1611722,813.9194139,796.1904762,1029.487179,829.2307692,1154.395604,-0.396118,0.129089,0.776306,7.813263,-9.27124,-13.488159,1,2,1,1,2,100,,,,
19:15:40,1.449839509,0.482738509,0.430020859,0,1.36553622,0.154671582,-0.168550826,0,1.239623636,0.121032644,0.11685787,0,0.861625719,0.874656542,0.162358401,0,0.346043056,0.574632345,-0.094799648,0,803.8461538,787.7289377,796.996337,826.4102564,842.5274725,1105.641026,-0.396118,0.129089,0.776306,7.813263,-9.27124,-13.488159,1,2,1,1,2,100,,,,
19:15:40,1.449839509,0.482738509,0.430020859,0,1.36553622,0.154671582,-0.168550826,0,1.239623636,0.121032644,0.11685787,0,0.861625719,0.874656542,0.162358401,0,0.346043056,0.574632345,-0.094799648,0,770,770.4029304,788.1318681,718.021978,775.2380952,816.7399267,-0.396118,0.129089,0.776306,7.813263,-9.27124,-13.488159,1,2,1,1,2,100,,,,
19:15:40,1.449839509,0.482738509,0.430020859,0,1.36553622,0.154671582,-0.168550826,0,1.239623636,0.121032644,0.11685787,0,0.861625719,0.874656542,0.162358401,0,0.346043056,0.574632345,-0.094799648,0,855.018315,782.8937729,788.9377289,877.5824176,813.9194139,614.4688645,-0.396118,0.129089,0.776306,7.813263,-9.27124,-13.488159,1,2,1,1,2,100,,,,
19:15:40,1.449839509,0.482738509,0.430020859,0,1.36553622,0.154671582,-0.168550826,0,1.239623636,0.121032644,0.11685787,0,0.861625719,0.874656542,0.162358401,0,0.346043056,0.574632345,-0.094799648,0,966.2271062,816.7399267,803.8461538,1156.410256,862.6739927,799.4139194,-0.396118,0.129089,0.776306,7.813263,-9.27124,-13.488159,1,2,1,1,2,100,,,,
19:15:40,1.449839509,0.482738509,0.430020859,0,1.36553622,0.154671582,-0.168550826,0,1.239623636,0.121032644,0.11685787,0,0.861625719,0.874656542,0.162358401,0,0.346043056,0.574632345,-0.094799648,0,964.6153846,811.9047619,813.1135531,1151.978022,722.8571429,761.1355311,-0.396118,0.129089,0.776306,7.813263,-9.27124,-13.488159,1,2,1,1,2,100,,,,
19:15:40,1.449839509,0.482738509,0.430020859,0,1.36553622,0.154671582,-0.168550826,0,1.239623636,0.121032644,0.11685787,0,0.861625719,0.874656542,0.162358401,0,0.346043056,0.574632345,-0.094799648,0,890.0732601,783.6996337,812.7106227,955.3479853,662.014652,614.4688645,-0.358887,0.1745,0.795776,4.336548,-34.288635,-2.325287,1,2,1,1,2,100,,,,
19:15:40,1.449839509,0.482738509,0.430020859,0,1.36553622,0.154671582,-0.168550826,0,1.239623636,0.121032644,0.11685787,0,0.861625719,0.874656542,0.162358401,0,0.346043056,0.574632345,-0.094799648,0,859.8534799,772.8205128,809.8901099,834.0659341,730.1098901,593.5164835,-0.358887,0.1745,0.795776,4.336548,-34.288635,-2.325287,1,2,1,1,2,100,,,,
19:15:40,1.449839509,0.482738509,0.430020859,0,1.36553622,0.154671582,-0.168550826,0,1.239623636,0.121032644,0.11685787,0,0.861625719,0.874656542,0.162358401,0,0.346043056,0.574632345,-0.094799648,0,913.040293,784.5054945,815.1282051,952.5274725,806.6666667,736.5567766,-0.358887,0.1745,0.795776,4.336548,-34.288635,-2.325287,1,2,1,1,2,100,,,,
19:15:40,1.449839509,0.482738509,0.430020859,0,1.36553622,0.154671582,-0.168550826,0,1.239623636,0.121032644,0.11685787,0,0.861625719,0.874656542,0.162358401,0,0.346043056,0.574632345,-0.094799648,0,1003.296703,801.8315018,833.6630037,1232.161172,853.8095238,890.0732601,-0.358887,0.1745,0.795776,4.336548,-34.288635,-2.325287,1,2,1,1,2,100,,,,
19:15:40,1.449839509,0.482738509,0.430020859,0,1.36553622,0.154671582,-0.168550826,0,1.239623636,0.121032644,0.11685787,0,0.861625719,0.874656542,0.162358401,0,0.346043056,0.574632345,-0.094799648,0,999.6703297,798.6080586,839.7069597,1232.564103,788.9377289,929.96337,-0.358887,0.1745,0.795776,4.336548,-34.288635,-2.325287,1,2,1,1,2,100,,,,
19:15:40,1.449839509,0.482738509,0.430020859,0,1.36553622,0.154671582,-0.168550826,0,1.239623636,0.121032644,0.11685787,0,0.861625719,0.874656542,0.162358401,0,0.346043056,0.574632345,-0.094799648,0,918.6813187,778.4615385,829.2307692,1026.263736,703.1135531,908.6080586,-0.358887,0.1745,0.795776,4.336548,-34.288635,-2.325287,1,2,1,1,2,100,,,,
19:15:40,1.449839509,0.482738509,0.430020859,0,1.36553622,0.154671582,-0.168550826,0,1.239623636,0.121032644,0.11685787,0,0.861625719,0.874656542,0.162358401,0,0.346043056,0.574632345,-0.094799648,0,866.3003663,770,815.9340659,867.9120879,782.0879121,1007.728938,-0.358887,0.1745,0.795776,4.336548,-34.288635,-2.325287,1,2,1,1,2,100,,,,
19:15:40,1.449839509,0.482738509,0.430020859,0,1.36553622,0.154671582,-0.168550826,0,1.239623636,0.121032644,0.11685787,0,0.861625719,0.874656542,0.162358401,0,0.346043056,0.574632345,-0.094799648,0,908.6080586,762.7472527,815.1282051,925.5311355,819.1575092,1037.948718,-0.358887,0.1745,0.795776,4.336548,-34.288635,-2.325287,1,2,1,1,2,100,,,,
19:15:40,1.449839509,0.482738509,0.430020859,0,1.36553622,0.154671582,-0.168550826,0,1.239623636,0.121032644,0.11685787,0,0.861625719,0.874656542,0.162358401,0,0.346043056,0.574632345,-0.094799648,0,1002.087912,759.5238095,829.2307692,1186.630037,792.5641026,840.5128205,-0.358887,0.1745,0.795776,4.336548,-34.288635,-2.325287,1,2,1,1,2,100,,,,
19:15:40,1.449839509,0.482738509,0.430020859,0,1.36553622,0.154671582,-0.168550826,0,1.239623636,0.121032644,0.11685787,0,0.861625719,0.874656542,0.162358401,0,0.346043056,0.574632345,-0.094799648,0,1008.131868,790.952381,835.6776557,1240.21978,854.2124542,804.6520147,-0.358887,0.1745,0.795776,4.336548,-34.288635,-2.325287,1,2,1,1,2,100,,,,
19:15:40,1.449839509,0.482738509,0.430020859,0,1.36553622,0.154671582,-0.168550826,0,1.239623636,0.121032644,0.11685787,0,0.861625719,0.874656542,0.162358401,0,0.346043056,0.574632345,-0.094799648,0,927.5457875,793.7728938,825.6043956,1034.322344,809.4871795,748.2417582,-0.358887,0.1745,0.795776,4.336548,-34.288635,-2.325287,1,2,1,1,2,100,,,,
19:15:40,1.449839509,0.482738509,0.430020859,0,1.36553622,0.154671582,-0.168550826,0,1.239623636,0.121032644,0.11685787,0,0.861625719,0.874656542,0.162358401,0,0.346043056,0.574632345,-0.094799648,0,856.6300366,777.2527473,811.5018315,824.3956044,750.2564103,670.4761905,-0.358887,0.1745,0.795776,4.336548,-34.288635,-2.325287,1,2,1,1,2,100,,,,
19:15:40,1.449839509,0.482738509,0.430020859,0,1.36553622,0.154671582,-0.168550826,0,1.239623636,0.121032644,0.11685787,0,0.861625719,0.874656542,0.162358401,0,0.346043056,0.574632345,-0.094799648,0,883.6263736,778.0586081,810.2930403,855.018315,817.5457875,784.5054945,-0.291138,0.11969,0.985474,-1.203766,-56.861115,12.99469,1,2,1,1,2,100,,,,
19:15:40,1.449839509,0.482738509,0.430020859,0,1.36553622,0.154671582,-0.168550826,0,1.239623636,0.121032644,0.11685787,0,0.861625719,0.874656542,0.162358401,0,0.346043056,0.574632345,-0.094799648,0,981.1355311,806.2637363,828.021978,1117.728938,808.2783883,749.8534799,-0.291138,0.11969,0.985474,-1.203766,-56.861115,12.99469,1,2,1,1,2,100,,,,
19:15:40,1.449839509,0.482738509,0.430020859,0,1.36553622,0.154671582,-0.168550826,0,1.239623636,0.121032644,0.11685787,0,0.861625719,0.874656542,0.162358401,0,0.346043056,0.574632345,-0.094799648,0,991.6117216,822.7838828,835.6776557,1197.509158,751.0622711,745.018315,-0.291138,0.11969,0.985474,-1.203766,-56.861115,12.99469,1,2,1,1,2,100,,,,
19:15:40,1.449839509,0.482738509,0.430020859,0,1.36553622,0.154671582,-0.168550826,0,1.239623636,0.121032644,0.11685787,0,0.861625719,0.874656542,0.162358401,0,0.346043056,0.574632345,-0.094799648,0,913.4432234,794.1758242,827.6190476,1003.699634,831.2454212,835.6776557,-0.291138,0.11969,0.985474,-1.203766,-56.861115,12.99469,1,2,1,1,2,100,,,,
19:15:40,1.449839509,0.482738509,0.430020859,0,1.36553622,0.154671582,-0.168550826,0,1.239623636,0.121032644,0.11685787,0,0.861625719,0.874656542,0.162358401,0,0.346043056,0.574632345,-0.094799648,0,832.4542125,772.014652,815.5311355,782.0879121,816.7399267,729.7069597,-0.291138,0.11969,0.985474,-1.203766,-56.861115,12.99469,1,2,1,1,2,100,,,,
19:15:40,1.449839509,0.482738509,0.430020859,0,1.36553622,0.154671582,-0.168550826,0,1.239623636,0.121032644,0.11685787,0,0.861625719,0.874656542,0.162358401,0,0.346043056,0.574632345,-0.094799648,0,818.3516484,779.6703297,807.8754579,770,730.1098901,719.6336996,-0.291138,0.11969,0.985474,-1.203766,-56.861115,12.99469,1,2,1,1,2,100,,,,
19:15:40,1.449839509,0.482738509,0.430020859,0,1.36553622,0.154671582,-0.168550826,0,1.239623636,0.121032644,0.11685787,0,0.861625719,0.874656542,0.162358401,0,0.346043056,0.574632345,-0.094799648,0,900.952381,800.2197802,819.5604396,1027.069597,810.6959707,1075.824176,-0.291138,0.11969,0.985474,-1.203766,-56.861115,12.99469,1,2,1,1,2,100,,,,
19:15:40,1.449839509,0.482738509,0.430020859,0,1.36553622,0.154671582,-0.168550826,0,1.239623636,0.121032644,0.11685787,0,0.861625719,0.874656542,0.162358401,0,0.346043056,0.574632345,-0.094799648,0,935.2014652,784.5054945,827.6190476,1158.021978,879.1941392,1244.652015,-0.291138,0.11969,0.985474,-1.203766,-56.861115,12.99469,1,2,1,1,2,100,,,,
19:15:40,1.449839509,0.482738509,0.430020859,0,1.36553622,0.154671582,-0.168550826,0,1.239623636,0.121032644,0.11685787,0,0.861625719,0.874656542,0.162358401,0,0.346043056,0.574632345,-0.094799648,0,857.032967,772.4175824,818.7545788,976.3003663,846.959707,1061.318681,-0.291138,0.11969,0.985474,-1.203766,-56.861115,12.99469,1,2,1,1,2,100,,,,
19:15:40,1.449839509,0.482738509,0.430020859,0,1.36553622,0.154671582,-0.168550826,0,1.239623636,0.121032644,0.11685787,0,0.861625719,0.874656542,0.162358401,0,0.346043056,0.574632345,-0.094799648,0,767.5824176,767.1794872,804.2490842,736.5567766,833.2600733,753.4798535,-0.291138,0.11969,0.985474,-1.203766,-56.861115,12.99469,1,2,1,1,2,100,,,,
19:15:40,1.449839509,0.482738509,0.430020859,0,1.36553622,0.154671582,-0.168550826,0,1.239623636,0.121032644,0.11685787,0,0.861625719,0.874656542,0.162358401,0,0.346043056,0.574632345,-0.094799648,0,759.1208791,760.7326007,800.6227106,693.4432234,821.978022,649.5238095,-0.291138,0.11969,0.985474,-1.203766,-56.861115,12.99469,1,2,1,1,2,100,,,,
19:15:40,1.449839509,0.482738509,0.430020859,0,1.36553622,0.154671582,-0.168550826,0,1.239623636,0.121032644,0.11685787,0,0.861625719,0.874656542,0.162358401,0,0.346043056,0.574632345,-0.094799648,0,842.1245421,788.1318681,812.3076923,943.6630037,833.6630037,766.3736264,-0.291138,0.11969,0.985474,-1.203766,-56.861115,12.99469,1,2,1,1,2,100,,,,
19:15:40,1.449839509,0.482738509,0.430020859,0,1.36553622,0.154671582,-0.168550826,0,1.239623636,0.121032644,0.11685787,0,0.861625719,0.874656542,0.162358401,0,0.346043056,0.574632345,-0.094799648,0,888.4615385,817.5457875,820.3663004,1122.564103,855.4212454,840.5128205,-0.201233,0.045105,1.126526,-10.534821,-41.399078,0.269165,1,2,1,1,2,100,,,,
19:15:40,1.449839509,0.482738509,0.430020859,0,1.36553622,0.154671582,-0.168550826,0,1.239623636,0.121032644,0.11685787,0,0.861625719,0.874656542,0.162358401,0,0.346043056,0.574632345,-0.094799648,0,834.0659341,794.5787546,811.9047619,992.4175824,798.6080586,703.5164835,-0.201233,0.045105,1.126526,-10.534821,-41.399078,0.269165,1,2,1,1,2,100,,,,
19:15:40,1.449839509,0.482738509,0.430020859,0,1.36553622,0.154671582,-0.168550826,0,1.239623636,0.121032644,0.11685787,0,0.861625719,0.874656542,0.162358401,0,0.346043056,0.574632345,-0.094799648,0,753.0769231,774.029304,797.3992674,763.5531136,728.9010989,622.9304029,-0.201233,0.045105,1.126526,-10.534821,-41.399078,0.269165,1,2,1,1,2,100,,,,
19:15:40,,,,,,,,,,,,,,,,,,,,,,,,,,,,,,,,,,,,,,,/muse/elements/blink,,,
19:15:40,1.449839509,0.482738509,0.430020859,0,1.36553622,0.154671582,-0.168550826,0,1.239623636,0.121032644,0.11685787,0,0.861625719,0.874656542,0.162358401,0,0.346043056,0.574632345,-0.094799648,0,734.9450549,771.2087912,790.952381,683.7728938,743.003663,660.8058608,-0.201233,0.045105,1.126526,-10.534821,-41.399078,0.269165,1,2,1,1,2,100,,,,
19:15:40,1.449839509,0.482738509,0.430020859,0,1.36553622,0.154671582,-0.168550826,0,1.239623636,0.121032644,0.11685787,0,0.861625719,0.874656542,0.162358401,0,0.346043056,0.574632345,-0.094799648,0,813.5164835,785.7142857,801.4285714,886.8498168,774.8351648,716.4102564,-0.201233,0.045105,1.126526,-10.534821,-41.399078,0.269165,1,2,1,1,2,100,,,,
19:15:40,1.449839509,0.482738509,0.430020859,0,1.36553622,0.154671582,-0.168550826,0,1.239623636,0.121032644,0.11685787,0,0.861625719,0.874656542,0.162358401,0,0.346043056,0.574632345,-0.094799648,0,877.1794872,809.8901099,812.3076923,1084.285714,882.4175824,999.6703297,-0.201233,0.045105,1.126526,-10.534821,-41.399078,0.269165,1,2,1,1,2,100,,,,
19:15:40,1.449839509,0.482738509,0.430020859,0,1.36553622,0.154671582,-0.168550826,0,1.239623636,0.121032644,0.11685787,0,0.861625719,0.874656542,0.162358401,0,0.346043056,0.574632345,-0.094799648,0,824.3956044,791.7582418,810.2930403,969.4505495,811.5018315,1081.062271,-0.201233,0.045105,1.126526,-10.534821,-41.399078,0.269165,1,2,1,1,2,100,,,,
19:15:40,1.449839509,0.482738509,0.430020859,0,1.36553622,0.154671582,-0.168550826,0,1.239623636,0.121032644,0.11685787,0,0.861625719,0.874656542,0.162358401,0,0.346043056,0.574632345,-0.094799648,0,729.3040293,770.4029304,797.8021978,706.7399267,705.9340659,775.6410256,-0.201233,0.045105,1.126526,-10.534821,-41.399078,0.269165,1,2,1,1,2,100,,,,
19:15:40,1.449839509,0.482738509,0.430020859,0,1.36553622,0.154671582,-0.168550826,0,1.239623636,0.121032644,0.11685787,0,0.861625719,0.874656542,0.162358401,0,0.346043056,0.574632345,-0.094799648,0,700.2930403,772.4175824,784.9084249,582.6373626,745.018315,608.8278388,-0.201233,0.045105,1.126526,-10.534821,-41.399078,0.269165,1,2,1,1,2,100,,,,
19:15:40,1.449839509,0.482738509,0.430020859,0,1.36553622,0.154671582,-0.168550826,0,1.239623636,0.121032644,0.11685787,0,0.861625719,0.874656542,0.162358401,0,0.346043056,0.574632345,-0.094799648,0,778.4615385,785.7142857,789.7435897,753.8827839,748.6446886,613.2600733,-0.201233,0.045105,1.126526,-10.534821,-41.399078,0.269165,1,2,1,1,2,100,,,,
19:15:40,1.449839509,0.482738509,0.430020859,0,1.36553622,0.154671582,-0.168550826,0,1.239623636,0.121032644,0.11685787,0,0.861625719,0.874656542,0.162358401,0,0.346043056,0.574632345,-0.094799648,0,855.4212454,795.7875458,802.6373626,1003.296703,809.4871795,769.5970696,-0.201233,0.045105,1.126526,-10.534821,-41.399078,0.269165,1,2,1,1,2,100,,,,
19:15:40,1.449839509,0.482738509,0.430020859,0,1.36553622,0.154671582,-0.168550826,0,1.239623636,0.121032644,0.11685787,0,0.861625719,0.874656542,0.162358401,0,0.346043056,0.574632345,-0.094799648,0,823.5897436,807.8754579,804.6520147,968.2417582,846.959707,959.7802198,-0.201233,0.045105,1.126526,-10.534821,-41.399078,0.269165,1,2,1,1,2,100,,,,
19:15:40,1.449839509,0.482738509,0.430020859,0,1.36553622,0.154671582,-0.168550826,0,1.239623636,0.121032644,0.11685787,0,0.861625719,0.874656542,0.162358401,0,0.346043056,0.574632345,-0.094799648,0,731.3186813,797.3992674,792.1611722,726.0805861,828.021978,832.4542125,-0.155396,-0.119019,0.960938,-2.721558,-23.656616,-0.837402,1,2,1,1,2,100,,,,
19:15:40,1.449839509,0.482738509,0.430020859,0,1.36553622,0.154671582,-0.168550826,0,1.239623636,0.121032644,0.11685787,0,0.861625719,0.874656542,0.162358401,0,0.346043056,0.574632345,-0.094799648,0,691.4285714,769.1941392,783.6996337,580.2197802,810.6959707,590.2930403,-0.155396,-0.119019,0.960938,-2.721558,-23.656616,-0.837402,1,2,1,1,2,100,,,,
19:15:40,1.449839509,0.482738509,0.430020859,0,1.36553622,0.154671582,-0.168550826,0,1.239623636,0.121032644,0.11685787,0,0.861625719,0.874656542,0.162358401,0,0.346043056,0.574632345,-0.094799648,0,756.7032967,775.6410256,792.1611722,732.1245421,817.1428571,678.1318681,-0.155396,-0.119019,0.960938,-2.721558,-23.656616,-0.837402,1,2,1,1,2,100,,,,
19:15:40,1.449839509,0.482738509,0.430020859,0,1.36553622,0.154671582,-0.168550826,0,1.239623636,0.121032644,0.11685787,0,0.861625719,0.874656542,0.162358401,0,0.346043056,0.574632345,-0.094799648,0,850.989011,812.3076923,809.8901099,1018.608059,848.1684982,834.8717949,-0.155396,-0.119019,0.960938,-2.721558,-23.656616,-0.837402,1,2,1,1,2,100,,,,
19:15:40,1.449839509,0.482738509,0.430020859,0,1.36553622,0.154671582,-0.168550826,0,1.239623636,0.121032644,0.11685787,0,0.861625719,0.874656542,0.162358401,0,0.346043056,0.574632345,-0.094799648,0,844.1391941,821.5750916,813.5164835,1020.622711,887.2527473,888.8644689,-0.155396,-0.119019,0.960938,-2.721558,-23.656616,-0.837402,1,2,1,1,2,100,,,,
19:15:40,1.449839509,0.482738509,0.430020859,0,1.36553622,0.154671582,-0.168550826,0,1.239623636,0.121032644,0.11685787,0,0.861625719,0.874656542,0.162358401,0,0.346043056,0.574632345,-0.094799648,0,757.9120879,797.3992674,799.010989,782.8937729,829.2307692,892.0879121,-0.155396,-0.119019,0.960938,-2.721558,-23.656616,-0.837402,1,2,1,1,2,100,,,,
19:15:40,1.449839509,0.482738509,0.430020859,0,1.36553622,0.154671582,-0.168550826,0,1.239623636,0.121032644,0.11685787,0,0.861625719,0.874656542,0.162358401,0,0.346043056,0.574632345,-0.094799648,0,713.992674,770,787.3260073,614.4688645,779.2673993,909.4139194,-0.155396,-0.119019,0.960938,-2.721558,-23.656616,-0.837402,1,2,1,1,2,100,,,,
19:15:40,1.449839509,0.482738509,0.430020859,0,1.36553622,0.154671582,-0.168550826,0,1.239623636,0.121032644,0.11685787,0,0.861625719,0.874656542,0.162358401,0,0.346043056,0.574632345,-0.094799648,0,765.5677656,787.3260073,794.981685,718.8278388,773.2234432,965.018315,-0.155396,-0.119019,0.960938,-2.721558,-23.656616,-0.837402,1,2,1,1,2,100,,,,
19:15:40,1.449839509,0.482738509,0.430020859,0,1.36553622,0.154671582,-0.168550826,0,1.239623636,0.121032644,0.11685787,0,0.861625719,0.874656542,0.162358401,0,0.346043056,0.574632345,-0.094799648,0,862.2710623,826.4102564,811.9047619,1004.908425,758.3150183,890.0732601,-0.155396,-0.119019,0.960938,-2.721558,-23.656616,-0.837402,1,2,1,1,2,100,,,,
19:15:40,1.449839509,0.482738509,0.430020859,0,1.36553622,0.154671582,-0.168550826,0,1.239623636,0.121032644,0.11685787,0,0.861625719,0.874656542,0.162358401,0,0.346043056,0.574632345,-0.094799648,0,858.6446886,823.1868132,813.1135531,1047.619048,825.2014652,774.029304,-0.155396,-0.119019,0.960938,-2.721558,-23.656616,-0.837402,1,2,1,1,2,100,,,,
19:15:40,1.449839509,0.482738509,0.430020859,0,1.36553622,0.154671582,-0.168550826,0,1.239623636,0.121032644,0.11685787,0,0.861625719,0.874656542,0.162358401,0,0.346043056,0.574632345,-0.094799648,0,779.2673993,768.7912088,801.025641,827.6190476,893.6996337,805.4578755,-0.155396,-0.119019,0.960938,-2.721558,-23.656616,-0.837402,1,2,1,1,2,100,,,,
19:15:40,1.449839509,0.482738509,0.430020859,0,1.36553622,0.154671582,-0.168550826,0,1.239623636,0.121032644,0.11685787,0,0.861625719,0.874656542,0.162358401,0,0.346043056,0.574632345,-0.094799648,0,731.3186813,771.2087912,791.7582418,626.5567766,811.0989011,703.9194139,-0.155396,-0.119019,0.960938,-2.721558,-23.656616,-0.837402,1,2,1,1,2,100,,,,
19:15:40,1.449839509,0.482738509,0.430020859,0,1.36553622,0.154671582,-0.168550826,0,1.239623636,0.121032644,0.11685787,0,0.861625719,0.874656542,0.162358401,0,0.346043056,0.574632345,-0.094799648,0,765.1648352,794.5787546,795.7875458,678.1318681,785.7142857,670.8791209,-0.155396,-0.119019,0.960938,-2.721558,-23.656616,-0.837402,1,2,1,1,2,100,,,,
19:15:40,1.449839509,0.482738509,0.430020859,0,1.36553622,0.154671582,-0.168550826,0,1.239623636,0.121032644,0.11685787,0,0.861625719,0.874656542,0.162358401,0,0.346043056,0.574632345,-0.094799648,0,865.8974359,807.0695971,808.2783883,976.7032967,825.6043956,691.8315018,-0.155396,-0.119019,0.960938,-2.721558,-23.656616,-0.837402,1,2,1,1,2,100,,,,
19:15:40,1.449839509,0.482738509,0.430020859,0,1.36553622,0.154671582,-0.168550826,0,1.239623636,0.121032644,0.11685787,0,0.861625719,0.874656542,0.162358401,0,0.346043056,0.574632345,-0.094799648,0,884.8351648,825.2014652,812.7106227,1072.600733,818.3516484,896.9230769,-0.155396,-0.119019,0.960938,-2.721558,-23.656616,-0.837402,1,2,1,1,2,100,,,,
19:15:40,1.449839509,0.482738509,0.430020859,0,1.36553622,0.154671582,-0.168550826,0,1.239623636,0.121032644,0.11685787,0,0.861625719,0.874656542,0.162358401,0,0.346043056,0.574632345,-0.094799648,0,805.0549451,814.3223443,803.8461538,873.5531136,774.4322344,871.5384615,-0.155396,-0.119019,0.960938,-2.721558,-23.656616,-0.837402,1,2,1,1,2,100,,,,
19:15:40,1.449839509,0.482738509,0.430020859,0,1.36553622,0.154671582,-0.168550826,0,1.239623636,0.121032644,0.11685787,0,0.861625719,0.874656542,0.162358401,0,0.346043056,0.574632345,-0.094799648,0,732.1245421,790.952381,793.7728938,664.8351648,799.8168498,695.8608059,-0.155396,-0.119019,0.960938,-2.721558,-23.656616,-0.837402,1,2,1,1,2,100,,,,
19:15:40,1.449839509,0.482738509,0.430020859,0,1.36553622,0.154671582,-0.168550826,0,1.239623636,0.121032644,0.11685787,0,0.861625719,0.874656542,0.162358401,0,0.346043056,0.574632345,-0.094799648,0,744.2124542,778.4615385,793.3699634,682.1611722,795.7875458,792.967033,-0.155396,-0.119019,0.960938,-2.721558,-23.656616,-0.837402,1,2,1,1,2,100,,,,
19:15:40,1.449839509,0.482738509,0.430020859,0,1.36553622,0.154671582,-0.168550826,0,1.239623636,0.121032644,0.11685787,0,0.861625719,0.874656542,0.162358401,0,0.346043056,0.574632345,-0.094799648,0,836.4835165,803.040293,807.8754579,945.6776557,734.1391941,928.7545788,-0.155396,-0.119019,0.960938,-2.721558,-23.656616,-0.837402,1,2,1,1,2,100,,,,
19:15:40,1.449839509,0.482738509,0.430020859,0,1.36553622,0.154671582,-0.168550826,0,1.239623636,0.121032644,0.11685787,0,0.861625719,0.874656542,0.162358401,0,0.346043056,0.574632345,-0.094799648,0,876.3736264,830.8424908,816.7399267,1071.794872,801.025641,989.1941392,-0.155396,-0.119019,0.960938,-2.721558,-23.656616,-0.837402,1,2,1,1,2,100,,,,
19:15:40,1.449839509,0.482738509,0.430020859,0,1.36553622,0.154671582,-0.168550826,0,1.239623636,0.121032644,0.11685787,0,0.861625719,0.874656542,0.162358401,0,0.346043056,0.574632345,-0.094799648,0,803.4432234,811.9047619,805.8608059,896.9230769,846.1538462,844.1391941,-0.155396,-0.119019,0.960938,-2.721558,-23.656616,-0.837402,1,2,1,1,2,100,,,,
19:15:40,1.449839509,0.482738509,0.430020859,0,1.36553622,0.154671582,-0.168550826,0,1.239623636,0.121032644,0.11685787,0,0.861625719,0.874656542,0.162358401,0,0.346043056,0.574632345,-0.094799648,0,730.1098901,784.5054945,790.952381,665.2380952,757.5091575,578.6080586,-0.155396,-0.119019,0.960938,-2.721558,-23.656616,-0.837402,1,2,1,1,2,100,,,,
19:15:40,1.449839509,0.482738509,0.430020859,0,1.36553622,0.154671582,-0.168550826,0,1.239623636,0.121032644,0.11685787,0,0.861625719,0.874656542,0.162358401,0,0.346043056,0.574632345,-0.094799648,0,740.989011,784.9084249,786.5201465,651.9413919,746.6300366,582.6373626,-0.155396,-0.119019,0.960938,-2.721558,-23.656616,-0.837402,1,2,1,1,2,100,,,,
19:15:40,1.449839509,0.482738509,0.430020859,0,1.36553622,0.154671582,-0.168550826,0,1.239623636,0.121032644,0.11685787,0,0.861625719,0.874656542,0.162358401,0,0.346043056,0.574632345,-0.094799648,0,828.4249084,813.9194139,804.2490842,927.1428571,776.4468864,741.3919414,-0.155396,-0.119019,0.960938,-2.721558,-23.656616,-0.837402,1,2,1,1,2,100,,,,
19:15:40,1.449839509,0.482738509,0.430020859,0,1.36553622,0.154671582,-0.168550826,0,1.239623636,0.121032644,0.11685787,0,0.861625719,0.874656542,0.162358401,0,0.346043056,0.574632345,-0.094799648,0,872.3443223,831.6483516,812.3076923,1094.358974,785.3113553,807.8754579,-0.023865,-0.114868,0.93988,2.415009,-29.727783,1.585083,1,2,1,1,2,100,,,,
19:15:40,1.449839509,0.482738509,0.430020859,0,1.36553622,0.154671582,-0.168550826,0,1.239623636,0.121032644,0.11685787,0,0.861625719,0.874656542,0.162358401,0,0.346043056,0.574632345,-0.094799648,0,799.010989,820.3663004,804.6520147,938.8278388,791.7582418,759.5238095,-0.023865,-0.114868,0.93988,2.415009,-29.727783,1.585083,1,2,1,1,2,100,,,,
19:15:40,1.449839509,0.482738509,0.430020859,0,1.36553622,0.154671582,-0.168550826,0,1.239623636,0.121032644,0.11685787,0,0.861625719,0.874656542,0.162358401,0,0.346043056,0.574632345,-0.094799648,0,705.5311355,790.5494505,792.967033,697.0695971,735.3479853,666.4468864,-0.023865,-0.114868,0.93988,2.415009,-29.727783,1.585083,1,2,1,1,2,100,,,,
19:15:40,1.449839509,0.482738509,0.430020859,0,1.36553622,0.154671582,-0.168550826,0,1.239623636,0.121032644,0.11685787,0,0.861625719,0.874656542,0.162358401,0,0.346043056,0.574632345,-0.094799648,0,703.1135531,778.4615385,785.3113553,634.2124542,746.6300366,652.7472527,-0.023865,-0.114868,0.93988,2.415009,-29.727783,1.585083,1,2,1,1,2,100,,,,
19:15:40,1.449839509,0.482738509,0.430020859,0,1.36553622,0.154671582,-0.168550826,0,1.239623636,0.121032644,0.11685787,0,0.861625719,0.874656542,0.162358401,0,0.346043056,0.574632345,-0.094799648,0,796.1904762,803.4432234,798.6080586,889.6703297,721.6483516,701.0989011,-0.023865,-0.114868,0.93988,2.415009,-29.727783,1.585083,1,2,1,1,2,100,,,,
19:15:40,1.449839509,0.482738509,0.430020859,0,1.36553622,0.154671582,-0.168550826,0,1.239623636,0.121032644,0.11685787,0,0.861625719,0.874656542,0.162358401,0,0.346043056,0.574632345,-0.094799648,0,850.1831502,828.8278388,813.5164835,1102.820513,801.8315018,1036.336996,-0.023865,-0.114868,0.93988,2.415009,-29.727783,1.585083,1,2,1,1,2,100,,,,
19:15:40,1.449839509,0.482738509,0.430020859,0,1.36553622,0.154671582,-0.168550826,0,1.239623636,0.121032644,0.11685787,0,0.861625719,0.874656542,0.162358401,0,0.346043056,0.574632345,-0.094799648,0,796.1904762,818.3516484,807.4725275,978.3150183,805.8608059,1077.838828,-0.023865,-0.114868,0.93988,2.415009,-29.727783,1.585083,1,2,1,1,2,100,,,,
19:15:40,1.449839509,0.482738509,0.430020859,0,1.36553622,0.154671582,-0.168550826,0,1.239623636,0.121032644,0.11685787,0,0.861625719,0.874656542,0.162358401,0,0.346043056,0.574632345,-0.094799648,0,706.7399267,790.5494505,792.967033,709.96337,761.9413919,987.1794872,-0.023865,-0.114868,0.93988,2.415009,-29.727783,1.585083,1,2,1,1,2,100,,,,
19:15:40,1.449839509,0.482738509,0.430020859,0,1.36553622,0.154671582,-0.168550826,0,1.239623636,0.121032644,0.11685787,0,0.861625719,0.874656542,0.162358401,0,0.346043056,0.574632345,-0.094799648,0,683.7728938,777.6556777,781.2820513,609.6336996,807.0695971,1017.802198,-0.023865,-0.114868,0.93988,2.415009,-29.727783,1.585083,1,2,1,1,2,100,,,,
19:15:40,1.449839509,0.482738509,0.430020859,0,1.36553622,0.154671582,-0.168550826,0,1.239623636,0.121032644,0.11685787,0,0.861625719,0.874656542,0.162358401,0,0.346043056,0.574632345,-0.094799648,0,766.3736264,794.981685,789.7435897,830.03663,764.7619048,719.2307692,-0.023865,-0.114868,0.93988,2.415009,-29.727783,1.585083,1,2,1,1,2,100,,,,
19:15:40,1.449839509,0.482738509,0.430020859,0,1.36553622,0.154671582,-0.168550826,0,1.239623636,0.121032644,0.11685787,0,0.861625719,0.874656542,0.162358401,0,0.346043056,0.574632345,-0.094799648,0,842.9304029,810.2930403,806.6666667,1061.721612,804.2490842,683.7728938,-0.023865,-0.114868,0.93988,2.415009,-29.727783,1.585083,1,2,1,1,2,100,,,,
19:15:40,1.449839509,0.482738509,0.430020859,0,1.36553622,0.154671582,-0.168550826,0,1.239623636,0.121032644,0.11685787,0,0.861625719,0.874656542,0.162358401,0,0.346043056,0.574632345,-0.094799648,0,798.6080586,814.3223443,811.0989011,967.8388278,822.3809524,787.7289377,-0.023865,-0.114868,0.93988,2.415009,-29.727783,1.585083,1,2,1,1,2,100,,,,
19:15:40,1.449839509,0.482738509,0.430020859,0,1.36553622,0.154671582,-0.168550826,0,1.239623636,0.121032644,0.11685787,0,0.861625719,0.874656542,0.162358401,0,0.346043056,0.574632345,-0.094799648,0,705.5311355,805.4578755,794.5787546,689.010989,781.6849817,680.1465201,-0.011292,-0.214478,0.906433,3.880463,-19.080811,11.40213,1,2,1,1,2,100,,,,
19:15:40,1.449839509,0.482738509,0.430020859,0,1.36553622,0.154671582,-0.168550826,0,1.239623636,0.121032644,0.11685787,0,0.861625719,0.874656542,0.162358401,0,0.346043056,0.574632345,-0.094799648,0,676.9230769,778.4615385,786.5201465,560.4761905,778.8644689,579.010989,-0.011292,-0.214478,0.906433,3.880463,-19.080811,11.40213,1,2,1,1,2,100,,,,
19:15:40,1.449839509,0.482738509,0.430020859,0,1.36553622,0.154671582,-0.168550826,0,1.239623636,0.121032644,0.11685787,0,0.861625719,0.874656542,0.162358401,0,0.346043056,0.574632345,-0.094799648,0,747.8388278,784.9084249,802.2344322,740.1831502,732.9304029,608.4249084,-0.011292,-0.214478,0.906433,3.880463,-19.080811,11.40213,1,2,1,1,2,100,,,,
19:15:40,1.449839509,0.482738509,0.430020859,0,1.36553622,0.154671582,-0.168550826,0,1.239623636,0.121032644,0.11685787,0,0.861625719,0.874656542,0.162358401,0,0.346043056,0.574632345,-0.094799648,0,812.3076923,811.5018315,816.3369963,984.3589744,729.3040293,705.1282051,-0.011292,-0.214478,0.906433,3.880463,-19.080811,11.40213,1,2,1,1,2,100,,,,
19:15:40,1.449839509,0.482738509,0.430020859,0,1.36553622,0.154671582,-0.168550826,0,1.239623636,0.121032644,0.11685787,0,0.861625719,0.874656542,0.162358401,0,0.346043056,0.574632345,-0.094799648,0,769.1941392,802.2344322,817.1428571,946.0805861,782.4908425,788.5347985,-0.011292,-0.214478,0.906433,3.880463,-19.080811,11.40213,1,2,1,1,2,100,,,,
19:15:40,1.449839509,0.482738509,0.430020859,0,1.36553622,0.154671582,-0.168550826,0,1.239623636,0.121032644,0.11685787,0,0.861625719,0.874656542,0.162358401,0,0.346043056,0.574632345,-0.094799648,0,670.8791209,776.4468864,807.8754579,700.2930403,782.4908425,925.9340659,-0.011292,-0.214478,0.906433,3.880463,-19.080811,11.40213,1,2,1,1,2,100,,,,
19:15:40,1.449839509,0.482738509,0.430020859,0,1.36553622,0.154671582,-0.168550826,0,1.239623636,0.121032644,0.11685787,0,0.861625719,0.874656542,0.162358401,0,0.346043056,0.574632345,-0.094799648,0,621.3186813,755.8974359,798.6080586,529.8534799,738.974359,886.043956,-0.011292,-0.214478,0.906433,3.880463,-19.080811,11.40213,1,2,1,1,2,100,,,,
19:15:40,1.449839509,0.482738509,0.430020859,0,1.36553622,0.154671582,-0.168550826,0,1.239623636,0.121032644,0.11685787,0,0.861625719,0.874656542,0.162358401,0,0.346043056,0.574632345,-0.094799648,0,679.7435897,759.5238095,803.040293,648.7179487,706.7399267,743.4065934,-0.011292,-0.214478,0.906433,3.880463,-19.080811,11.40213,1,2,1,1,2,100,,,,
19:15:40,1.449839509,0.482738509,0.430020859,0,1.36553622,0.154671582,-0.168550826,0,1.239623636,0.121032644,0.11685787,0,0.861625719,0.874656542,0.162358401,0,0.346043056,0.574632345,-0.094799648,0,768.3882784,771.6117216,818.3516484,927.9487179,732.1245421,832.0512821,-0.011292,-0.214478,0.906433,3.880463,-19.080811,11.40213,1,2,1,1,2,100,,,,
19:15:40,1.449839509,0.482738509,0.430020859,0,1.36553622,0.154671582,-0.168550826,0,1.239623636,0.121032644,0.11685787,0,0.861625719,0.874656542,0.162358401,0,0.346043056,0.574632345,-0.094799648,0,749.047619,763.956044,821.978022,920.6959707,788.5347985,693.040293,-0.011292,-0.214478,0.906433,3.880463,-19.080811,11.40213,1,2,1,1,2,100,,,,
19:15:40,1.449839509,0.482738509,0.430020859,0,1.36553622,0.154671582,-0.168550826,0,1.239623636,0.121032644,0.11685787,0,0.861625719,0.874656542,0.162358401,0,0.346043056,0.574632345,-0.094799648,0,653.1501832,743.4065934,813.5164835,662.014652,805.4578755,619.3040293,-0.011292,-0.214478,0.906433,3.880463,-19.080811,11.40213,1,2,1,1,2,100,,,,
19:15:40,1.449839509,0.482738509,0.430020859,0,1.36553622,0.154671582,-0.168550826,0,1.239623636,0.121032644,0.11685787,0,0.861625719,0.874656542,0.162358401,0,0.346043056,0.574632345,-0.094799648,0,612.8571429,728.9010989,804.6520147,491.978022,728.0952381,594.3223443,-0.011292,-0.214478,0.906433,3.880463,-19.080811,11.40213,1,2,1,1,2,100,,,,
19:15:40,1.449839509,0.482738509,0.430020859,0,1.36553622,0.154671582,-0.168550826,0,1.239623636,0.121032644,0.11685787,0,0.861625719,0.874656542,0.162358401,0,0.346043056,0.574632345,-0.094799648,0,682.5641026,744.6153846,806.6666667,597.1428571,718.8278388,560.8791209,-0.005676,-0.208679,0.932007,2.437439,-16.007843,25.271606,1,2,1,1,2,100,,,,
19:15:40,1.449839509,0.482738509,0.430020859,0,1.36553622,0.154671582,-0.168550826,0,1.239623636,0.121032644,0.11685787,0,0.861625719,0.874656542,0.162358401,0,0.346043056,0.574632345,-0.094799648,0,781.6849817,775.6410256,819.96337,889.2673993,784.5054945,662.014652,-0.005676,-0.208679,0.932007,2.437439,-16.007843,25.271606,1,2,1,1,2,100,,,,
19:15:40,1.449839509,0.482738509,0.430020859,0,1.36553622,0.154671582,-0.168550826,0,1.239623636,0.121032644,0.11685787,0,0.861625719,0.874656542,0.162358401,0,0.346043056,0.574632345,-0.094799648,0,789.7435897,784.9084249,823.5897436,959.7802198,821.5750916,781.6849817,-0.005676,-0.208679,0.932007,2.437439,-16.007843,25.271606,1,2,1,1,2,100,,,,
19:15:40,1.449839509,0.482738509,0.430020859,0,1.36553622,0.154671582,-0.168550826,0,1.239623636,0.121032644,0.11685787,0,0.861625719,0.874656542,0.162358401,0,0.346043056,0.574632345,-0.094799648,0,702.7106227,767.1794872,811.0989011,742.6007326,827.2161172,756.7032967,-0.005676,-0.208679,0.932007,2.437439,-16.007843,25.271606,1,2,1,1,2,100,,,,
19:15:40,1.449839509,0.482738509,0.430020859,0,1.36553622,0.154671582,-0.168550826,0,1.239623636,0.121032644,0.11685787,0,0.861625719,0.874656542,0.162358401,0,0.346043056,0.574632345,-0.094799648,0,647.5091575,751.4652015,795.3846154,531.0622711,806.6666667,675.3113553,-0.005676,-0.208679,0.932007,2.437439,-16.007843,25.271606,1,2,1,1,2,100,,,,
19:15:40,1.449839509,0.482738509,0.430020859,0,1.36553622,0.154671582,-0.168550826,0,1.239623636,0.121032644,0.11685787,0,0.861625719,0.874656542,0.162358401,0,0.346043056,0.574632345,-0.094799648,0,693.8461538,763.1501832,794.5787546,571.3553114,792.967033,838.0952381,-0.005676,-0.208679,0.932007,2.437439,-16.007843,25.271606,1,2,1,1,2,100,,,,
19:15:40,1.449839509,0.482738509,0.430020859,0,1.36553622,0.154671582,-0.168550826,0,1.239623636,0.121032644,0.11685787,0,0.861625719,0.874656542,0.162358401,0,0.346043056,0.574632345,-0.094799648,0,799.8168498,789.3406593,812.7106227,857.032967,757.1062271,954.5421245,-0.005676,-0.208679,0.932007,2.437439,-16.007843,25.271606,1,2,1,1,2,100,,,,
19:15:40,1.449839509,0.482738509,0.430020859,0,1.36553622,0.154671582,-0.168550826,0,1.239623636,0.121032644,0.11685787,0,0.861625719,0.874656542,0.162358401,0,0.346043056,0.574632345,-0.094799648,0,827.6190476,809.0842491,826.007326,976.3003663,802.6373626,1064.542125,-0.005676,-0.208679,0.932007,2.437439,-16.007843,25.271606,1,2,1,1,2,100,,,,
19:15:40,1.449839509,0.482738509,0.430020859,0,1.36553622,0.154671582,-0.168550826,0,1.239623636,0.121032644,0.11685787,0,0.861625719,0.874656542,0.162358401,0,0.346043056,0.574632345,-0.094799648,0,745.018315,801.8315018,821.978022,779.6703297,766.3736264,834.8717949,-0.005676,-0.208679,0.932007,2.437439,-16.007843,25.271606,1,2,1,1,2,100,,,,
19:15:40,1.449839509,0.482738509,0.430020859,0,1.36553622,0.154671582,-0.168550826,0,1.239623636,0.121032644,0.11685787,0,0.861625719,0.874656542,0.162358401,0,0.346043056,0.574632345,-0.094799648,0,670.8791209,767.5824176,813.1135531,542.3443223,618.4981685,386.4102564,-0.005676,-0.208679,0.932007,2.437439,-16.007843,25.271606,1,2,1,1,2,100,,,,
19:15:40,1.449839509,0.482738509,0.430020859,0,1.36553622,0.154671582,-0.168550826,0,1.239623636,0.121032644,0.11685787,0,0.861625719,0.874656542,0.162358401,0,0.346043056,0.574632345,-0.094799648,0,708.3516484,767.1794872,813.9194139,566.1172161,582.2344322,377.9487179,-0.005676,-0.208679,0.932007,2.437439,-16.007843,25.271606,1,2,1,1,2,100,,,,
19:15:40,1.449839509,0.482738509,0.430020859,0,1.36553622,0.154671582,-0.168550826,0,1.239623636,0.121032644,0.11685787,0,0.861625719,0.874656542,0.162358401,0,0.346043056,0.574632345,-0.094799648,0,818.7545788,803.4432234,826.8131868,864.2857143,703.1135531,741.3919414,-0.005676,-0.208679,0.932007,2.437439,-16.007843,25.271606,1,2,1,1,2,100,,,,
19:15:40,1.449839509,0.482738509,0.430020859,0,1.36553622,0.154671582,-0.168550826,0,1.239623636,0.121032644,0.11685787,0,0.861625719,0.874656542,0.162358401,0,0.346043056,0.574632345,-0.094799648,0,854.6153846,819.1575092,836.8864469,1030.695971,786.5201465,788.9377289,-0.000854,-0.118042,0.982178,4.710388,-15.813446,24.284668,1,2,1,1,2,100,,,,
19:15:40,1.449839509,0.482738509,0.430020859,0,1.36553622,0.154671582,-0.168550826,0,1.239623636,0.121032644,0.11685787,0,0.861625719,0.874656542,0.162358401,0,0.346043056,0.574632345,-0.094799648,0,773.6263736,803.8461538,833.2600733,873.1501832,832.0512821,651.1355311,-0.000854,-0.118042,0.982178,4.710388,-15.813446,24.284668,1,2,1,1,2,100,,,,
19:15:40,1.449839509,0.482738509,0.430020859,0,1.36553622,0.154671582,-0.168550826,0,1.239623636,0.121032644,0.11685787,0,0.861625719,0.874656542,0.162358401,0,0.346043056,0.574632345,-0.094799648,0,689.8168498,786.5201465,815.1282051,606.8131868,814.3223443,622.9304029,-0.000854,-0.118042,0.982178,4.710388,-15.813446,24.284668,1,2,1,1,2,100,,,,
19:15:40,1.449839509,0.482738509,0.430020859,0,1.36553622,0.154671582,-0.168550826,0,1.239623636,0.121032644,0.11685787,0,0.861625719,0.874656542,0.162358401,0,0.346043056,0.574632345,-0.094799648,0,689.4139194,789.7435897,809.0842491,540.7326007,756.7032967,591.5018315,-0.000854,-0.118042,0.982178,4.710388,-15.813446,24.284668,1,2,1,1,2,100,,,,
19:15:40,1.449839509,0.482738509,0.430020859,0,1.36553622,0.154671582,-0.168550826,0,1.239623636,0.121032644,0.11685787,0,0.861625719,0.874656542,0.162358401,0,0.346043056,0.574632345,-0.094799648,0,784.1025641,814.3223443,820.3663004,812.7106227,784.5054945,664.029304,-0.000854,-0.118042,0.982178,4.710388,-15.813446,24.284668,1,2,1,1,2,100,,,,
19:15:40,1.449839509,0.482738509,0.430020859,0,1.36553622,0.154671582,-0.168550826,0,1.239623636,0.121032644,0.11685787,0,0.861625719,0.874656542,0.162358401,0,0.346043056,0.574632345,-0.094799648,0,847.3626374,833.6630037,832.4542125,1030.29304,797.3992674,821.5750916,-0.000854,-0.118042,0.982178,4.710388,-15.813446,24.284668,1,2,1,1,2,100,,,,
19:15:40,1.449839509,0.482738509,0.430020859,0,1.36553622,0.154671582,-0.168550826,0,1.239623636,0.121032644,0.11685787,0,0.861625719,0.874656542,0.162358401,0,0.346043056,0.574632345,-0.094799648,0,785.3113553,827.6190476,832.8571429,906.1904762,806.2637363,1017.399267,-0.000854,-0.118042,0.982178,4.710388,-15.813446,24.284668,1,2,1,1,2,100,,,,
19:15:40,1.449839509,0.482738509,0.430020859,0,1.36553622,0.154671582,-0.168550826,0,1.239623636,0.121032644,0.11685787,0,0.861625719,0.874656542,0.162358401,0,0.346043056,0.574632345,-0.094799648,0,689.010989,805.4578755,815.9340659,645.4945055,749.047619,777.2527473,-0.000854,-0.118042,0.982178,4.710388,-15.813446,24.284668,1,2,1,1,2,100,,,,
19:15:40,1.449839509,0.482738509,0.430020859,0,1.36553622,0.154671582,-0.168550826,0,1.239623636,0.121032644,0.11685787,0,0.861625719,0.874656542,0.162358401,0,0.346043056,0.574632345,-0.094799648,0,688.6080586,791.3553114,809.0842491,569.7435897,720.4395604,516.1538462,-0.000854,-0.118042,0.982178,4.710388,-15.813446,24.284668,1,2,1,1,2,100,,,,
